90 Deg Fixed Reg 2 13-Apr-2018
Time(s) LoadCell(N)
0.000000 -0.211129
0.020000 -0.125148
0.040000 -0.233688
0.060000 -0.206844
0.080000 -0.205317
0.100000 -0.179593
0.120000 -0.171751
0.140000 -0.240340
0.160000 -0.186077
0.180000 -0.187449
0.200000 -0.201396
0.220000 -0.185951
0.240000 -0.222135
0.260000 -0.178207
0.280000 -0.204057
0.300000 -0.201914
0.320000 -0.183430
0.340000 -0.239289
0.360000 -0.205976
0.380000 -0.175994
0.400000 -0.226504
0.420000 -0.251655
0.440000 -0.208972
0.460000 -0.186091
0.480000 -0.242930
0.500000 -0.274284
0.520000 -0.201649
0.540000 -0.212627
0.560000 -0.239990
0.580000 -0.242034
0.600000 -0.243462
0.620000 -0.183962
0.640000 -0.254119
0.660000 -0.284338
0.680000 -0.187477
0.700000 -0.240928
0.720000 -0.239233
0.740000 -0.209084
0.760000 -0.234808
0.780000 -0.200388
0.800000 -0.220777
0.820000 -0.202013
0.840000 -0.193498
0.860000 -0.227009
0.880000 -0.171947
0.900000 -0.196859
0.920000 -0.237413
0.940000 -0.197700
0.960000 -0.196691
0.980000 -0.173614
1.000000 -0.210120
1.020000 -0.228633
1.040000 -0.140566
1.060000 -0.186595
1.080000 -0.237609
1.100000 -0.202965
1.120000 -0.158224
1.140000 -0.179999
1.160000 -0.224152
1.180000 -0.213691
1.200000 -0.168236
1.220000 -0.180321
1.240000 -0.225230
1.260000 -0.204855
1.280000 -0.182016
1.300000 -0.185615
1.320000 -0.247384
1.340000 -0.216044
1.360000 -0.208608
1.380000 -0.218439
1.400000 -0.197391
1.420000 -0.263529
1.440000 -0.223494
1.460000 -0.237511
1.480000 -0.249582
1.500000 -0.226014
1.520000 -0.301577
1.540000 -0.236993
1.560000 -0.242062
1.580000 -0.271049
1.600000 -0.267296
1.620000 -0.266918
1.640000 -0.217654
1.660000 -0.232722
1.680000 -0.297698
1.700000 -0.219279
1.720000 -0.188583
1.740000 -0.255365
1.760000 -0.222570
1.780000 -0.216982
1.800000 -0.188611
1.820000 -0.186455
1.840000 -0.245661
1.860000 -0.159820
1.880000 -0.193975
1.900000 -0.196229
1.920000 -0.184676
1.940000 -0.199730
1.960000 -0.150018
1.980000 -0.214896
2.000000 -0.170939
2.020000 -0.167452
2.040000 -0.214364
2.060000 -0.170127
2.080000 -0.162985
2.100000 -0.224432
2.120000 -0.192588
2.140000 -0.188191
2.160000 -0.202181
2.180000 -0.169693
2.200000 -0.248728
2.220000 -0.186931
2.240000 -0.161991
2.260000 -0.256094
2.280000 -0.213789
2.300000 -0.203665
2.320000 -0.215960
2.340000 -0.220203
2.360000 -0.249918
2.380000 -0.219615
2.400000 -0.199576
2.420000 -0.250828
2.440000 -0.251360
2.460000 -0.193905
2.480000 -0.241460
2.500000 -0.246123
2.520000 -0.227401
2.540000 -0.240130
2.560000 -0.248266
2.580000 -0.213985
2.600000 -0.233086
2.620000 -0.255533
2.640000 -0.197882
2.660000 -0.233436
2.680000 -0.220315
2.700000 -0.227639
2.720000 -0.245409
2.740000 -0.199170
2.760000 -0.190628
2.780000 -0.244555
2.800000 -0.207446
2.820000 -0.175798
2.840000 -0.197209
2.860000 -0.220217
2.880000 -0.207600
2.900000 -0.187225
2.920000 -0.200962
2.940000 -0.227639
2.960000 -0.217752
2.980000 -0.197363
3.000000 -0.178781
3.020000 -0.211171
3.040000 -0.217290
3.060000 -0.167494
3.080000 -0.220119
3.100000 -0.185391
3.120000 -0.191174
3.140000 -0.202573
3.160000 -0.170673
3.180000 -0.204757
3.200000 -0.187463
3.220000 -0.157216
3.240000 -0.219433
3.260000 -0.166864
3.280000 -0.186357
3.300000 -0.227387
3.320000 -0.177605
3.340000 -0.218032
3.360000 -0.204281
3.380000 -0.191020
3.400000 -0.227429
3.420000 -0.194871
3.440000 -0.235397
3.460000 -0.235621
3.480000 -0.200906
3.500000 -0.243518
3.520000 -0.223396
3.540000 -0.254805
3.560000 -0.225118
3.580000 -0.205303
3.600000 -0.267982
3.620000 -0.223256
3.640000 -0.198666
3.660000 -0.244751
3.680000 -0.229725
3.700000 -0.239962
3.720000 -0.235789
3.740000 -0.224852
3.760000 -0.256948
3.780000 -0.220049
3.800000 -0.201214
3.820000 -0.224740
3.840000 -0.229767
3.860000 -0.220399
3.880000 -0.219573
3.900000 -0.236125
3.920000 -0.223228
3.940000 -0.227247
3.960000 -0.231196
3.980000 -0.228955
4.000000 -0.248854
4.020000 -0.204575
4.040000 -0.233786
4.060000 -0.254189
4.080000 -0.205793
4.100000 -0.233898
4.120000 -0.243995
4.140000 -0.212263
4.160000 -0.237217
4.180000 -0.208986
4.200000 -0.217178
4.220000 -0.242048
4.240000 -0.191062
4.260000 -0.229725
4.280000 -0.231504
4.300000 -0.199394
4.320000 -0.231350
4.340000 -0.212599
4.360000 -0.223200
4.380000 -0.225566
4.400000 -0.199940
4.420000 -0.245619
4.440000 -0.208510
4.460000 -0.211647
4.480000 -0.228885
4.500000 -0.221533
4.520000 -0.239836
4.540000 -0.229753
4.560000 -0.216604
4.580000 -0.235621
4.600000 -0.228367
4.620000 -0.216940
4.640000 -0.229543
4.660000 -0.207908
4.680000 -0.231112
4.700000 -0.242202
4.720000 -0.204197
4.740000 -0.201088
4.760000 -0.211983
4.780000 -0.245843
4.800000 -0.198764
4.820000 -0.195725
4.840000 -0.199016
4.860000 -0.207040
4.880000 -0.215750
4.900000 -0.153967
4.920000 -0.225034
4.940000 -0.218355
4.960000 -0.174216
4.980000 -0.207656
5.000000 -0.181722
5.020000 -0.208804
5.040000 -0.207012
5.060000 -0.180027
5.080000 -0.200472
5.100000 -0.211885
5.120000 -0.180854
5.140000 -0.200934
5.160000 -0.198540
5.180000 -0.177563
5.200000 -0.198148
5.220000 -0.180139
5.240000 -0.193092
5.260000 -0.186819
5.280000 -0.160493
5.300000 -0.222471
5.320000 -0.181736
5.340000 -0.193919
5.360000 -0.209014
5.380000 -0.164344
5.400000 -0.214686
5.420000 -0.191048
5.440000 -0.196257
5.460000 -0.205892
5.480000 -0.190838
5.500000 -0.204939
5.520000 -0.238561
5.540000 -0.193793
5.560000 -0.188471
5.580000 -0.236447
5.600000 -0.197279
5.620000 -0.223662
5.640000 -0.193289
5.660000 -0.202601
5.680000 -0.244121
5.700000 -0.191482
5.720000 -0.201032
5.740000 -0.215526
5.760000 -0.221477
5.780000 -0.210499
5.800000 -0.191678
5.820000 -0.207782
5.840000 -0.224040
5.860000 -0.206354
5.880000 -0.195277
5.900000 -0.200976
5.920000 -0.206340
5.940000 -0.218327
5.960000 -0.180153
5.980000 -0.218074
6.000000 -0.217528
6.020000 -0.184999
6.040000 -0.218411
6.060000 -0.192924
6.080000 -0.198582
6.100000 -0.216870
6.120000 -0.209476
6.140000 -0.230145
6.160000 -0.218383
6.180000 -0.230271
6.200000 -0.238127
6.220000 -0.226687
6.240000 -0.257984
6.260000 -0.249946
6.280000 -0.260449
6.300000 -0.257774
6.320000 -0.263795
6.340000 -0.287783
6.360000 -0.274900
6.380000 -0.273402
6.400000 -0.284086
6.420000 -0.313115
6.440000 -0.281818
6.460000 -0.264622
6.480000 -0.312793
6.500000 -0.294603
6.520000 -0.281706
6.540000 -0.284857
6.560000 -0.286873
6.580000 -0.309727
6.600000 -0.294211
6.620000 -0.256724
6.640000 -0.284744
6.660000 -0.295765
6.680000 -0.244793
6.700000 -0.265630
6.720000 -0.241488
6.740000 -0.251290
6.760000 -0.269523
6.780000 -0.205359
6.800000 -0.246151
6.820000 -0.218144
6.840000 -0.229725
6.860000 -0.217976
6.880000 -0.175028
6.900000 -0.198960
6.920000 -0.186203
6.940000 -0.179845
6.960000 -0.157832
6.980000 -0.144389
7.000000 -0.172311
7.020000 -0.169357
7.040000 -0.111495
7.060000 -0.150368
7.080000 -0.127641
7.100000 -0.108764
7.120000 -0.121983
7.140000 -0.092534
7.160000 -0.103205
7.180000 -0.103163
7.200000 -0.073210
7.220000 -0.079301
7.240000 -0.085925
7.260000 -0.081570
7.280000 -0.050454
7.300000 -0.101286
7.320000 -0.058520
7.340000 -0.072944
7.360000 -0.093893
7.380000 -0.075520
7.400000 -0.079301
7.420000 -0.106258
7.440000 -0.085631
7.460000 -0.101496
7.480000 -0.092870
7.500000 -0.108190
7.520000 -0.143044
7.540000 -0.085393
7.560000 -0.146391
7.580000 -0.169735
7.600000 -0.146279
7.620000 -0.192910
7.640000 -0.171625
7.660000 -0.211479
7.680000 -0.230355
7.700000 -0.191370
7.720000 -0.237231
7.740000 -0.260351
7.760000 -0.271903
7.780000 -0.267576
7.800000 -0.304279
7.820000 -0.307766
7.840000 -0.328911
7.860000 -0.340100
7.880000 -0.363555
7.900000 -0.343909
7.920000 -0.383552
7.940000 -0.413743
7.960000 -0.376845
7.980000 -0.434665
8.000000 -0.432830
8.020000 -0.430422
8.040000 -0.467909
8.060000 -0.441372
8.080000 -0.477585
8.100000 -0.470891
8.120000 -0.468861
8.140000 -0.465374
8.160000 -0.474826
8.180000 -0.480259
8.200000 -0.451679
8.220000 -0.488970
8.240000 -0.444537
8.260000 -0.463875
8.280000 -0.420829
8.300000 -0.429553
8.320000 -0.432550
8.340000 -0.375430
8.360000 -0.390988
8.380000 -0.377979
8.400000 -0.351260
8.420000 -0.314376
8.440000 -0.324360
8.460000 -0.265980
8.480000 -0.258124
8.500000 -0.228381
8.520000 -0.179677
8.540000 -0.178879
8.560000 -0.117684
8.580000 -0.110220
8.600000 -0.085351
8.620000 -0.026116
8.640000 -0.001540
8.660000 0.012617
8.680000 0.063939
8.700000 0.096357
8.720000 0.120779
8.740000 0.155143
8.760000 0.153393
8.780000 0.218523
8.800000 0.243757
8.820000 0.196831
8.840000 0.304167
8.860000 0.262003
8.880000 0.265420
8.900000 0.331572
8.920000 0.252005
8.940000 0.289716
8.960000 0.300106
8.980000 0.246795
9.000000 0.279731
9.020000 0.234752
9.040000 0.190922
9.060000 0.193989
9.080000 0.158532
9.100000 0.104423
9.120000 0.064766
9.140000 0.041842
9.160000 -0.011063
9.180000 -0.103807
9.200000 -0.121381
9.220000 -0.198778
9.240000 -0.275978
9.260000 -0.274746
9.280000 -0.414388
9.300000 -0.456888
9.320000 -0.489012
9.340000 -0.638553
9.360000 -0.642698
9.380000 -0.710657
9.400000 -0.860241
9.420000 -0.800797
9.440000 -0.912907
9.460000 -0.993357
9.480000 -0.996228
9.500000 -1.052913
9.520000 -1.078525
9.540000 -1.111923
9.560000 -1.144943
9.580000 -1.168637
9.600000 -1.128755
9.620000 -1.170121
9.640000 -1.186771
9.660000 -1.101701
9.680000 -1.100160
9.700000 -1.096618
9.720000 -1.023800
9.740000 -0.995303
9.760000 -0.936867
9.780000 -0.852399
9.800000 -0.820891
9.820000 -0.708430
9.840000 -0.613432
9.860000 -0.552083
9.880000 -0.379323
9.900000 -0.325004
9.920000 -0.213593
9.940000 -0.055509
9.960000 0.038201
9.980000 0.154597
10.000000 0.267254
10.020000 0.417244
10.040000 0.528879
10.060000 0.632322
10.080000 0.756574
10.100000 0.873656
10.120000 0.990472
10.140000 1.073008
10.160000 1.132228
10.180000 1.270329
10.200000 1.325461
10.220000 1.339842
10.240000 1.424450
10.260000 1.444195
10.280000 1.483405
10.300000 1.439658
10.320000 1.456588
10.340000 1.448144
10.360000 1.347180
10.380000 1.341508
10.400000 1.211361
10.420000 1.101127
10.440000 1.085289
10.460000 0.895669
10.480000 0.732572
10.500000 0.653019
10.520000 0.475876
10.540000 0.243309
10.560000 0.112993
10.580000 -0.132122
10.600000 -0.317988
10.620000 -0.472179
10.640000 -0.784889
10.660000 -0.993427
10.680000 -1.096940
10.700000 -1.371588
10.720000 -1.632947
10.740000 -1.716981
10.760000 -1.992189
10.780000 -2.183279
10.800000 -2.274945
10.820000 -2.543319
10.840000 -2.614835
10.860000 -2.694178
10.880000 -2.846450
10.900000 -2.902212
10.920000 -2.932599
10.940000 -2.990503
10.960000 -2.987604
10.980000 -2.905614
11.000000 -2.946350
11.020000 -2.842963
11.040000 -2.675623
11.060000 -2.621234
11.080000 -2.418395
11.100000 -2.203150
11.120000 -2.031412
11.140000 -1.741921
11.160000 -1.464514
11.180000 -1.281490
11.200000 -0.899492
11.220000 -0.604049
11.240000 -0.327273
11.260000 0.114113
11.280000 0.405481
11.300000 0.755286
11.320000 1.162265
11.340000 1.472720
11.360000 1.805034
11.380000 2.159907
11.400000 2.492893
11.420000 2.750765
11.440000 3.052412
11.460000 3.301434
11.480000 3.486208
11.500000 3.757355
11.520000 3.855631
11.540000 3.958416
11.560000 4.103827
11.580000 4.079601
11.600000 4.031667
11.620000 4.066199
11.640000 3.883876
11.660000 3.764343
11.680000 3.622559
11.700000 3.329944
11.720000 3.104182
11.740000 2.770146
11.760000 2.393875
11.780000 2.018333
11.800000 1.587548
11.820000 1.125072
11.840000 0.632924
11.860000 0.147455
11.880000 -0.379197
11.900000 -0.883010
11.920000 -1.416132
11.940000 -1.929664
11.960000 -2.463024
11.980000 -2.950985
12.000000 -3.448525
12.020000 -3.934232
12.040000 -4.325290
12.060000 -4.776576
12.080000 -5.081416
12.100000 -5.425730
12.120000 -5.694651
12.140000 -5.860003
12.160000 -6.073008
12.180000 -6.128377
12.200000 -6.185819
12.220000 -6.180876
12.240000 -6.045911
12.260000 -5.895641
12.280000 -5.698222
12.300000 -5.392878
12.320000 -5.051056
12.340000 -4.629527
12.360000 -4.153847
12.380000 -3.719868
12.400000 -3.088779
12.420000 -2.495344
12.440000 -1.886576
12.460000 -1.167433
12.480000 -0.551523
12.500000 0.263319
12.520000 0.961107
12.540000 1.609841
12.560000 2.406450
12.580000 3.078500
12.600000 3.771135
12.620000 4.435398
12.640000 4.999034
12.660000 5.602145
12.680000 6.145909
12.700000 6.513134
12.720000 6.937716
12.740000 7.240567
12.760000 7.451065
12.780000 7.598185
12.800000 7.628180
12.820000 7.622102
12.840000 7.492655
12.860000 7.306971
12.880000 6.999737
12.900000 6.609421
12.920000 6.205648
12.940000 5.622940
12.960000 5.046393
12.980000 4.356797
13.000000 3.615011
13.020000 2.862974
13.040000 1.983381
13.060000 1.121572
13.080000 0.270951
13.100000 -0.652417
13.120000 -1.608119
13.140000 -2.467925
13.160000 -3.371801
13.180000 -4.195072
13.200000 -5.039279
13.220000 -5.855129
13.240000 -6.507952
13.260000 -7.179904
13.280000 -7.839995
13.300000 -8.328852
13.320000 -8.679777
13.340000 -9.047141
13.360000 -9.296359
13.380000 -9.367258
13.400000 -9.432920
13.420000 -9.265887
13.440000 -9.139521
13.460000 -8.913437
13.480000 -8.399723
13.500000 -8.011872
13.520000 -7.466343
13.540000 -6.753165
13.560000 -6.064690
13.580000 -5.236993
13.600000 -4.323595
13.620000 -3.447755
13.640000 -2.440255
13.660000 -1.420053
13.680000 -0.425338
13.700000 0.639226
13.720000 1.652957
13.740000 2.654492
13.760000 3.687646
13.780000 4.655685
13.800000 5.544003
13.820000 6.414396
13.840000 7.279342
13.860000 7.958071
13.880000 8.597073
13.900000 9.140977
13.920000 9.521113
13.940000 9.893294
13.960000 10.025750
13.980000 10.106750
14.000000 10.114940
14.020000 9.913865
14.040000 9.664731
14.060000 9.331213
14.080000 8.819194
14.100000 8.252184
14.120000 7.642393
14.140000 6.878552
14.160000 6.035521
14.180000 5.162117
14.200000 4.213361
14.220000 3.227342
14.240000 2.172020
14.260000 1.065236
14.280000 0.014858
14.300000 -1.087473
14.320000 -2.293261
14.340000 -3.376702
14.360000 -4.385560
14.380000 -5.481954
14.400000 -6.456644
14.420000 -7.332121
14.440000 -8.183399
14.460000 -8.877714
14.480000 -9.535242
14.500000 -10.096470
14.520000 -10.460040
14.540000 -10.785730
14.560000 -11.013400
14.580000 -11.036840
14.600000 -11.010660
14.620000 -10.848310
14.640000 -10.523610
14.660000 -10.163970
14.680000 -9.626278
14.700000 -8.992220
14.720000 -8.333025
14.740000 -7.497472
14.760000 -6.606844
14.780000 -5.664208
14.800000 -4.599266
14.820000 -3.552374
14.840000 -2.415021
14.860000 -1.217929
14.880000 -0.076949
14.900000 1.107890
14.920000 2.268167
14.940000 3.433289
14.960000 4.524656
14.980000 5.595829
15.000000 6.636209
15.020000 7.567587
15.040000 8.511022
15.060000 9.283420
15.080000 9.912171
15.100000 10.501000
15.120000 10.920020
15.140000 11.173120
15.160000 11.379090
15.180000 11.343480
15.200000 11.288860
15.220000 11.130840
15.240000 10.715740
15.260000 10.353790
15.280000 9.807132
15.300000 9.151522
15.320000 8.453020
15.340000 7.518757
15.360000 6.587562
15.380000 5.602327
15.400000 4.473543
15.420000 3.341875
15.440000 2.190463
15.460000 0.966260
15.480000 -0.229067
15.500000 -1.442249
15.520000 -2.730628
15.540000 -3.959172
15.560000 -5.205863
15.580000 -6.373212
15.600000 -7.481200
15.620000 -8.536130
15.640000 -9.446909
15.660000 -10.224380
15.680000 -10.903480
15.700000 -11.475690
15.720000 -11.904560
15.740000 -12.149470
15.760000 -12.317850
15.780000 -12.365220
15.800000 -12.196960
15.820000 -11.919090
15.840000 -11.565210
15.860000 -10.967370
15.880000 -10.284830
15.900000 -9.518732
15.920000 -8.579330
15.940000 -7.634355
15.960000 -6.507630
15.980000 -5.367812
16.000000 -4.222407
16.020000 -2.916999
16.040000 -1.607026
16.060000 -0.316420
16.080000 1.034471
16.100000 2.349345
16.120000 3.647205
16.140000 4.885606
16.160000 6.033364
16.180000 7.183769
16.200000 8.235072
16.220000 9.161814
16.240000 10.034420
16.260000 10.733830
16.280000 11.296640
16.300000 11.723550
16.320000 12.001950
16.340000 12.134630
16.360000 12.064460
16.380000 11.965460
16.400000 11.687280
16.420000 11.300690
16.440000 10.817120
16.460000 10.231200
16.480000 9.596143
16.500000 8.787448
16.520000 7.843664
16.540000 6.846862
16.560000 5.800894
16.580000 4.618534
16.600000 3.407075
16.620000 2.236184
16.640000 0.976189
16.660000 -0.322035
16.680000 -1.569525
16.700000 -2.863422
16.720000 -4.126274
16.740000 -5.334750
16.760000 -6.517699
16.780000 -7.571522
16.800000 -8.575942
16.820000 -9.468082
16.840000 -10.139330
16.860000 -10.777270
16.880000 -11.279840
16.900000 -11.623720
16.920000 -11.874060
16.940000 -11.987540
16.960000 -12.010140
16.980000 -11.881450
17.000000 -11.545200
17.020000 -11.179670
17.040000 -10.637980
17.060000 -9.937055
17.080000 -9.188981
17.100000 -8.333193
17.120000 -7.443615
17.140000 -6.418303
17.160000 -5.357352
17.180000 -4.285912
17.200000 -3.085488
17.220000 -1.883929
17.240000 -0.657332
17.260000 0.601333
17.280000 1.829050
17.300000 3.037106
17.320000 4.185424
17.340000 5.260505
17.360000 6.315952
17.380000 7.340593
17.400000 8.201506
17.420000 9.049731
17.440000 9.836132
17.460000 10.403340
17.480000 10.901580
17.500000 11.251450
17.520000 11.431190
17.540000 11.482910
17.560000 11.386990
17.580000 11.219190
17.600000 10.951930
17.620000 10.543200
17.640000 10.096900
17.660000 9.553629
17.680000 8.856793
17.700000 8.116043
17.720000 7.196750
17.740000 6.245991
17.760000 5.247733
17.780000 4.098841
17.800000 3.011018
17.820000 1.902721
17.840000 0.721411
17.860000 -0.382012
17.880000 -1.610835
17.900000 -2.854866
17.920000 -4.026920
17.940000 -5.159582
17.960000 -6.294639
17.980000 -7.389968
18.000000 -8.304766
18.020000 -9.072949
18.040000 -9.787107
18.060000 -10.393660
18.080000 -10.852590
18.100000 -11.153490
18.120000 -11.404550
18.140000 -11.614170
18.160000 -11.610710
18.180000 -11.452180
18.200000 -11.233150
18.220000 -10.880770
18.240000 -10.321320
18.260000 -9.680205
18.280000 -8.959578
18.300000 -8.202332
18.320000 -7.343295
18.340000 -6.399566
18.360000 -5.429553
18.380000 -4.356055
18.400000 -3.245210
18.420000 -2.093279
18.440000 -0.854989
18.460000 0.399712
18.480000 1.570618
18.500000 2.717381
18.520000 3.888133
18.540000 5.006063
18.560000 5.980824
18.580000 6.944003
18.600000 7.911930
18.620000 8.828016
18.640000 9.587503
18.660000 10.207170
18.680000 10.783590
18.700000 11.227890
18.720000 11.387580
18.740000 11.463460
18.760000 11.429370
18.780000 11.299780
18.800000 11.040020
18.820000 10.681390
18.840000 10.263250
18.860000 9.773145
18.880000 9.101124
18.900000 8.336722
18.920000 7.471328
18.940000 6.486765
18.960000 5.439706
18.980000 4.344278
19.000000 3.178148
19.020000 2.050639
19.040000 0.923984
19.060000 -0.267520
19.080000 -1.508387
19.100000 -2.740333
19.120000 -3.959746
19.140000 -5.183038
19.160000 -6.366869
19.180000 -7.504614
19.200000 -8.433723
19.220000 -9.259432
19.240000 -10.068060
19.260000 -10.607820
19.280000 -11.055780
19.300000 -11.434290
19.320000 -11.700610
19.340000 -11.885540
19.360000 -11.843670
19.380000 -11.719630
19.400000 -11.518230
19.420000 -11.047900
19.440000 -10.511000
19.460000 -9.845571
19.480000 -9.047393
19.500000 -8.251400
19.520000 -7.349779
19.540000 -6.386823
19.560000 -5.357366
19.580000 -4.255287
19.600000 -3.114685
19.620000 -1.903786
19.640000 -0.650554
19.660000 0.641858
19.680000 1.833433
19.700000 3.012880
19.720000 4.220895
19.740000 5.274774
19.760000 6.252573
19.780000 7.278600
19.800000 8.185836
19.820000 9.039677
19.840000 9.802622
19.860000 10.404820
19.880000 10.971440
19.900000 11.303270
19.920000 11.459990
19.940000 11.541830
19.960000 11.431470
19.980000 11.238850
20.000000 10.980400
20.020000 10.615140
20.040000 10.165160
20.060000 9.614459
20.080000 8.965613
20.100000 8.200875
20.120000 7.311073
20.140000 6.317857
20.160000 5.243981
20.180000 4.199596
20.200000 3.008385
20.220000 1.889334
20.240000 0.797366
20.260000 -0.442716
20.280000 -1.597826
20.300000 -2.835430
20.320000 -4.099527
20.340000 -5.260659
20.360000 -6.464304
20.380000 -7.515859
20.400000 -8.482567
20.420000 -9.349347
20.440000 -10.033860
20.460000 -10.597570
20.480000 -11.059940
20.500000 -11.441630
20.520000 -11.713170
20.540000 -11.817020
20.560000 -11.847600
20.580000 -11.783920
20.600000 -11.446800
20.620000 -11.061080
20.640000 -10.483100
20.660000 -9.817480
20.680000 -9.077248
20.700000 -8.191115
20.720000 -7.350101
20.740000 -6.350765
20.760000 -5.316798
20.780000 -4.270789
20.800000 -3.048211
20.820000 -1.847828
20.840000 -0.583786
20.860000 0.700952
20.880000 1.916753
20.900000 3.143840
20.920000 4.290897
20.940000 5.327413
20.960000 6.388000
20.980000 7.382771
21.000000 8.289923
21.020000 9.138527
21.040000 9.909706
21.060000 10.563430
21.080000 11.025120
21.100000 11.367620
21.120000 11.551910
21.140000 11.543020
21.160000 11.451500
21.180000 11.252840
21.200000 10.997210
21.220000 10.615220
21.240000 10.117260
21.260000 9.620369
21.280000 8.940659
21.300000 8.129738
21.320000 7.227011
21.340000 6.217439
21.360000 5.168895
21.380000 4.057195
21.400000 2.882761
21.420000 1.794797
21.440000 0.659166
21.460000 -0.583898
21.480000 -1.758753
21.500000 -2.993009
21.520000 -4.256813
21.540000 -5.417132
21.560000 -6.576695
21.580000 -7.679488
21.600000 -8.559194
21.620000 -9.381149
21.640000 -10.033290
21.660000 -10.590020
21.680000 -11.051570
21.700000 -11.354640
21.720000 -11.645550
21.740000 -11.764210
21.760000 -11.801100
21.780000 -11.645160
21.800000 -11.356350
21.820000 -10.970040
21.840000 -10.365700
21.860000 -9.692752
21.880000 -8.948893
21.900000 -8.109181
21.920000 -7.216929
21.940000 -6.304442
21.960000 -5.242734
21.980000 -4.179025
22.000000 -3.015653
22.020000 -1.737524
22.040000 -0.570413
22.060000 0.756742
22.080000 2.005394
22.100000 3.132483
22.120000 4.331759
22.140000 5.342438
22.160000 6.382958
22.180000 7.410427
22.200000 8.302960
22.220000 9.159168
22.240000 9.928933
22.260000 10.546290
22.280000 11.056500
22.300000 11.356870
22.320000 11.475620
22.340000 11.519620
22.360000 11.441300
22.380000 11.199250
22.400000 10.902800
22.420000 10.586000
22.440000 10.133480
22.460000 9.549834
22.480000 8.879969
22.500000 8.076133
22.520000 7.180618
22.540000 6.179055
22.560000 5.044111
22.580000 4.013015
22.600000 2.880632
22.620000 1.712416
22.640000 0.605478
22.660000 -0.581952
22.680000 -1.819919
22.700000 -3.063909
22.720000 -4.257625
22.740000 -5.479713
22.760000 -6.627765
22.780000 -7.672248
22.800000 -8.601232
22.820000 -9.336198
22.840000 -10.047120
22.860000 -10.574000
22.880000 -10.983880
22.900000 -11.380830
22.920000 -11.615650
22.940000 -11.749970
22.960000 -11.773150
22.980000 -11.632810
23.000000 -11.342540
23.020000 -10.917090
23.040000 -10.320260
23.060000 -9.680219
23.080000 -8.884870
23.100000 -8.055030
23.120000 -7.222488
23.140000 -6.262151
23.160000 -5.239289
23.180000 -4.118180
23.200000 -2.970618
23.220000 -1.750603
23.240000 -0.460935
23.260000 0.781444
23.280000 1.997776
23.300000 3.175193
23.320000 4.272343
23.340000 5.360699
23.360000 6.370915
23.380000 7.376497
23.400000 8.296756
23.420000 9.139241
23.440000 9.905225
23.460000 10.544440
23.480000 10.995640
23.500000 11.292650
23.520000 11.448800
23.540000 11.490660
23.560000 11.372470
23.580000 11.149450
23.600000 10.913590
23.620000 10.557460
23.640000 10.121110
23.660000 9.525818
23.680000 8.873485
23.700000 8.092125
23.720000 7.158143
23.740000 6.167335
23.760000 5.069191
23.780000 3.975598
23.800000 2.922587
23.820000 1.720188
23.840000 0.602873
23.860000 -0.563663
23.880000 -1.812568
23.900000 -3.034291
23.920000 -4.302800
23.940000 -5.487233
23.960000 -6.586427
23.980000 -7.691853
24.000000 -8.590225
24.020000 -9.340217
24.040000 -10.038150
24.060000 -10.547000
24.080000 -11.027150
24.100000 -11.367020
24.120000 -11.606130
24.140000 -11.786700
24.160000 -11.779420
24.180000 -11.621020
24.200000 -11.359770
24.220000 -10.897420
24.240000 -10.308400
24.260000 -9.663849
24.280000 -8.892390
24.300000 -8.089129
24.320000 -7.221396
24.340000 -6.289290
24.360000 -5.262661
24.380000 -4.140137
24.400000 -2.994956
24.420000 -1.764564
24.440000 -0.511291
24.460000 0.765494
24.480000 1.993225
24.500000 3.109503
24.520000 4.248523
24.540000 5.357030
24.560000 6.366939
24.580000 7.300123
24.600000 8.286156
24.620000 9.160204
24.640000 9.909846
24.660000 10.539700
24.680000 10.979020
24.700000 11.343120
24.720000 11.491470
24.740000 11.482310
24.760000 11.365380
24.780000 11.198480
24.800000 10.952160
24.820000 10.569010
24.840000 10.128760
24.860000 9.552018
24.880000 8.885724
24.900000 8.108579
24.920000 7.143453
24.940000 6.124596
24.960000 5.089215
24.980000 4.010984
25.000000 2.878882
25.020000 1.739974
25.040000 0.591782
25.060000 -0.520575
25.080000 -1.791535
25.100000 -3.072072
25.120000 -4.255245
25.140000 -5.458834
25.160000 -6.572802
25.180000 -7.675861
25.200000 -8.580017
25.220000 -9.298011
25.240000 -10.018860
25.260000 -10.554280
25.280000 -11.034370
25.300000 -11.374140
25.320000 -11.604730
25.340000 -11.794460
25.360000 -11.770530
25.380000 -11.634050
25.400000 -11.345930
25.420000 -10.878820
25.440000 -10.338220
25.460000 -9.648865
25.480000 -8.906673
25.500000 -8.105877
25.520000 -7.210697
25.540000 -6.296600
25.560000 -5.280599
25.580000 -4.124215
25.600000 -3.016073
25.620000 -1.760083
25.640000 -0.501348
25.660000 0.738523
25.680000 2.008027
25.700000 3.108103
25.720000 4.248635
25.740000 5.360082
25.760000 6.328107
25.780000 7.350017
25.800000 8.270276
25.820000 9.138429
25.840000 9.914047
25.860000 10.496520
25.880000 10.987350
25.900000 11.299550
25.920000 11.460440
25.940000 11.445290
25.960000 11.344310
25.980000 11.183930
26.000000 10.910370
26.020000 10.563830
26.040000 10.102660
26.060000 9.541236
26.080000 8.907723
26.100000 8.071750
26.120000 7.140779
26.140000 6.165976
26.160000 5.114253
26.180000 4.040069
26.200000 2.897843
26.220000 1.774815
26.240000 0.686963
26.260000 -0.503855
26.280000 -1.734793
26.300000 -3.002182
26.320000 -4.211666
26.340000 -5.362197
26.360000 -6.552133
26.380000 -7.574491
26.400000 -8.506975
26.420000 -9.282075
26.440000 -9.939883
26.460000 -10.533840
26.480000 -10.996230
26.500000 -11.320570
26.520000 -11.610060
26.540000 -11.747610
26.560000 -11.761470
26.580000 -11.644400
26.600000 -11.317370
26.620000 -10.897620
26.640000 -10.366220
26.660000 -9.686605
26.680000 -8.951260
26.700000 -8.108033
26.720000 -7.295222
26.740000 -6.349728
26.760000 -5.297936
26.780000 -4.221021
26.800000 -3.026758
26.820000 -1.859255
26.840000 -0.602537
26.860000 0.689778
26.880000 1.878790
26.900000 3.028858
26.920000 4.157557
26.940000 5.217598
26.960000 6.242253
26.980000 7.237640
27.000000 8.137608
27.020000 9.039537
27.040000 9.815520
27.060000 10.424250
27.080000 10.869220
27.100000 11.231020
27.120000 11.386810
27.140000 11.398460
27.160000 11.343940
27.180000 11.119740
27.200000 10.895750
27.220000 10.580160
27.240000 10.065790
27.260000 9.567016
27.280000 8.900077
27.300000 8.085824
27.320000 7.214884
27.340000 6.195733
27.360000 5.137135
27.380000 4.081449
27.400000 2.961894
27.420000 1.841317
27.440000 0.712799
27.460000 -0.483718
27.480000 -1.666695
27.500000 -2.931535
27.520000 -4.178871
27.540000 -5.327021
27.560000 -6.475717
27.580000 -7.539118
27.600000 -8.449239
27.620000 -9.256491
27.640000 -9.892174
27.660000 -10.479560
27.680000 -10.965310
27.700000 -11.299580
27.720000 -11.556070
27.740000 -11.710760
27.760000 -11.739330
27.780000 -11.600180
27.800000 -11.295910
27.820000 -10.903500
27.840000 -10.346360
27.860000 -9.665950
27.880000 -8.962939
27.900000 -8.104378
27.920000 -7.269301
27.940000 -6.372820
27.960000 -5.297053
27.980000 -4.228218
28.000000 -3.058867
28.020000 -1.847016
28.040000 -0.644449
28.060000 0.690716
28.080000 1.879784
28.100000 3.011018
28.120000 4.160736
28.140000 5.218845
28.160000 6.312199
28.180000 7.234601
28.200000 8.146178
28.220000 9.073607
28.240000 9.830321
28.260000 10.437300
28.280000 10.916300
28.300000 11.246160
28.320000 11.466910
28.340000 11.467010
28.360000 11.335960
28.380000 11.192790
28.400000 10.944750
28.420000 10.589010
28.440000 10.120830
28.460000 9.560952
28.480000 8.932089
28.500000 8.127288
28.520000 7.230988
28.540000 6.228347
28.560000 5.172787
28.580000 4.115589
28.600000 2.988822
28.620000 1.852925
28.640000 0.694399
28.660000 -0.444397
28.680000 -1.653349
28.700000 -2.958491
28.720000 -4.156171
28.740000 -5.325816
28.760000 -6.464640
28.780000 -7.547366
28.800000 -8.513403
28.820000 -9.250778
28.840000 -9.966630
28.860000 -10.566650
28.880000 -11.021990
28.900000 -11.374780
28.920000 -11.631500
28.940000 -11.818480
28.960000 -11.821150
28.980000 -11.658630
29.000000 -11.418690
29.020000 -10.972950
29.040000 -10.416000
29.060000 -9.774322
29.080000 -9.000104
29.100000 -8.188370
29.120000 -7.322374
29.140000 -6.379177
29.160000 -5.357212
29.180000 -4.229521
29.200000 -3.082687
29.220000 -1.896364
29.240000 -0.605225
29.260000 0.668717
29.280000 1.868497
29.300000 3.004674
29.320000 4.157361
29.340000 5.287727
29.360000 6.259155
29.380000 7.231758
29.400000 8.204852
29.420000 9.071367
29.440000 9.827436
29.460000 10.420170
29.480000 10.929100
29.500000 11.314370
29.520000 11.424300
29.540000 11.467480
29.560000 11.382940
29.580000 11.185640
29.600000 10.947260
29.620000 10.587160
29.640000 10.105920
29.660000 9.598957
29.680000 8.919304
29.700000 8.135858
29.720000 7.230708
29.740000 6.208518
29.760000 5.175014
29.780000 4.118908
29.800000 2.955074
29.820000 1.797164
29.840000 0.701541
29.860000 -0.453471
29.880000 -1.731292
29.900000 -2.950187
29.920000 -4.185228
29.940000 -5.355209
29.960000 -6.489594
29.980000 -7.613756
30.000000 -8.518696
30.020000 -9.295533
30.040000 -10.010670
30.060000 -10.583230
30.080000 -11.026080
30.100000 -11.404750
30.120000 -11.656770
30.140000 -11.774980
30.160000 -11.797330
30.180000 -11.649250
30.200000 -11.383840
30.220000 -10.921950
30.240000 -10.345530
30.260000 -9.721375
30.280000 -8.965431
30.300000 -8.119026
30.320000 -7.235777
30.340000 -6.338176
30.360000 -5.284408
30.380000 -4.141692
30.400000 -3.010150
30.420000 -1.808619
30.440000 -0.571351
30.460000 0.739350
30.480000 1.945040
30.500000 3.065435
30.520000 4.252360
30.540000 5.344273
30.560000 6.346746
30.580000 7.318439
30.600000 8.296770
30.620000 9.176784
30.640000 9.921147
30.660000 10.522190
30.680000 11.021430
30.700000 11.402860
30.720000 11.533960
30.740000 11.543520
30.760000 11.469700
30.780000 11.282990
30.800000 11.028870
30.820000 10.609960
30.840000 10.186300
30.860000 9.604013
30.880000 8.951792
30.900000 8.178988
30.920000 7.181556
30.940000 6.210885
30.960000 5.180125
30.980000 4.038557
31.000000 2.880660
31.020000 1.744049
31.040000 0.609917
31.060000 -0.561465
31.080000 -1.826109
31.100000 -3.120272
31.120000 -4.301316
31.140000 -5.474854
31.160000 -6.681664
31.180000 -7.777344
31.200000 -8.665899
31.220000 -9.479579
31.240000 -10.204380
31.260000 -10.727610
31.280000 -11.248080
31.300000 -11.543930
31.320000 -11.787390
31.340000 -11.983390
31.360000 -11.890480
31.380000 -11.815240
31.400000 -11.499820
31.420000 -11.007350
31.440000 -10.490120
31.460000 -9.807944
31.480000 -9.005467
31.500000 -8.178666
31.520000 -7.275435
31.540000 -6.318431
31.560000 -5.275670
31.580000 -4.096867
31.600000 -2.948885
31.620000 -1.764298
31.640000 -0.428251
31.660000 0.885755
31.680000 2.086502
31.700000 3.277138
31.720000 4.474146
31.740000 5.523138
31.760000 6.635705
31.780000 7.602119
31.800000 8.479472
31.820000 9.472731
31.840000 10.137330
31.860000 10.743560
31.880000 11.259550
31.900000 11.497310
31.920000 11.672300
31.940000 11.676800
31.960000 11.507780
31.980000 11.313940
32.000000 11.050010
32.020000 10.637350
32.040000 10.142530
32.060000 9.592320
32.080000 8.913255
32.100000 8.079928
32.120000 7.161616
32.140000 6.110523
32.160000 5.038355
32.180000 4.003408
32.200000 2.744800
32.220000 1.603553
32.240000 0.525462
32.260000 -0.785981
32.280000 -1.956704
32.300000 -3.276550
32.320000 -4.540283
32.340000 -5.629255
32.360000 -6.895594
32.380000 -7.962314
32.400000 -8.808958
32.420000 -9.656903
32.440000 -10.290050
32.460000 -10.851390
32.480000 -11.334530
32.500000 -11.603290
32.520000 -11.875300
32.540000 -11.974110
32.560000 -11.979310
32.580000 -11.782390
32.600000 -11.454310
32.620000 -11.049450
32.640000 -10.410660
32.660000 -9.728671
32.680000 -8.929373
32.700000 -8.027094
32.720000 -7.235329
32.740000 -6.199892
32.760000 -5.084650
32.780000 -4.014751
32.800000 -2.796948
32.820000 -1.543395
32.840000 -0.295317
32.860000 1.079968
32.880000 2.276261
32.900000 3.445164
32.920000 4.688705
32.940000 5.737571
32.960000 6.810691
32.980000 7.789078
33.000000 8.708161
33.020000 9.615453
33.040000 10.346930
33.060000 10.916100
33.080000 11.360310
33.100000 11.695920
33.120000 11.776790
33.140000 11.755840
33.160000 11.636530
33.180000 11.370790
33.200000 11.145240
33.220000 10.721220
33.240000 10.152190
33.260000 9.644440
33.280000 8.943376
33.300000 8.035454
33.320000 7.111273
33.340000 6.054958
33.360000 4.947249
33.380000 3.853796
33.400000 2.619498
33.420000 1.468155
33.440000 0.310483
33.460000 -0.988133
33.480000 -2.255074
33.500000 -3.502004
33.520000 -4.794318
33.540000 -6.016070
33.560000 -7.162120
33.580000 -8.240995
33.600000 -9.143624
33.620000 -9.920321
33.640000 -10.611010
33.660000 -11.090850
33.680000 -11.561070
33.700000 -11.889450
33.720000 -12.064530
33.740000 -12.192090
33.760000 -12.154210
33.780000 -11.921640
33.800000 -11.583670
33.820000 -11.117120
33.840000 -10.456020
33.860000 -9.740728
33.880000 -8.924457
33.900000 -8.023243
33.920000 -7.158395
33.940000 -6.109697
33.960000 -4.975704
33.980000 -3.899503
34.000000 -2.648653
34.020000 -1.316835
34.040000 -0.073952
34.060000 1.270609
34.080000 2.535211
34.100000 3.714911
34.120000 4.923374
34.140000 6.011491
34.160000 7.041985
34.180000 8.108033
34.200000 9.046637
34.220000 9.856143
34.240000 10.630180
34.260000 11.204720
34.280000 11.588720
34.300000 11.901290
34.320000 11.960910
34.340000 11.920070
34.360000 11.793930
34.380000 11.534810
34.400000 11.240770
34.420000 10.843760
34.440000 10.270360
34.460000 9.697163
34.480000 8.993466
34.500000 8.045788
34.520000 7.096094
34.540000 6.000877
34.560000 4.890648
34.580000 3.759190
34.600000 2.538810
34.620000 1.340052
34.640000 0.118160
34.660000 -1.120759
34.680000 -2.485808
34.700000 -3.751684
34.720000 -5.011791
34.740000 -6.323262
34.760000 -7.390375
34.780000 -8.482819
34.800000 -9.431407
34.820000 -10.110850
34.840000 -10.783000
34.860000 -11.349700
34.880000 -11.737190
34.900000 -12.086290
34.920000 -12.254720
34.940000 -12.314290
34.960000 -12.340070
34.980000 -12.031750
35.000000 -11.662300
35.020000 -11.181320
35.040000 -10.516020
35.060000 -9.749508
35.080000 -8.874115
35.100000 -8.032093
35.120000 -7.081320
35.140000 -6.022246
35.160000 -4.897089
35.180000 -3.701286
35.200000 -2.466903
35.220000 -1.122062
35.240000 0.178263
35.260000 1.483895
35.280000 2.806065
35.300000 3.991982
35.320000 5.161081
35.340000 6.292385
35.360000 7.333843
35.380000 8.369490
35.400000 9.313961
35.420000 10.118550
35.440000 10.870040
35.460000 11.405180
35.480000 11.772590
35.500000 12.020490
35.520000 12.070230
35.540000 12.021810
35.560000 11.851300
35.580000 11.601940
35.600000 11.246380
35.620000 10.789730
35.640000 10.265240
35.660000 9.610146
35.680000 8.848573
35.700000 7.901623
35.720000 6.860669
35.740000 5.843143
35.760000 4.650784
35.780000 3.467654
35.800000 2.281624
35.820000 1.063206
35.840000 -0.159050
35.860000 -1.470283
35.880000 -2.819774
35.900000 -4.056201
35.920000 -5.367672
35.940000 -6.628227
35.960000 -7.702174
35.980000 -8.763951
36.000000 -9.625872
36.020000 -10.365670
36.040000 -10.986190
36.060000 -11.480240
36.080000 -11.892850
36.100000 -12.152280
36.120000 -12.345650
36.140000 -12.379090
36.160000 -12.268460
36.180000 -11.987430
36.200000 -11.546420
36.220000 -11.019650
36.240000 -10.319180
36.260000 -9.530565
36.280000 -8.696861
36.300000 -7.781335
36.320000 -6.803059
36.340000 -5.763141
36.360000 -4.617190
36.380000 -3.402146
36.400000 -2.164066
36.420000 -0.810543
36.440000 0.446147
36.460000 1.778077
36.480000 3.076456
36.500000 4.216764
36.520000 5.366930
36.540000 6.493795
36.560000 7.535940
36.580000 8.529548
36.600000 9.443408
36.620000 10.247150
36.640000 10.953450
36.660000 11.478030
36.680000 11.786560
36.700000 12.020140
36.720000 12.047740
36.740000 11.973050
36.760000 11.787600
36.780000 11.511330
36.800000 11.139620
36.820000 10.696650
36.840000 10.155870
36.860000 9.442596
36.880000 8.630387
36.900000 7.713768
36.920000 6.689828
36.940000 5.577555
36.960000 4.436546
36.980000 3.264745
37.000000 2.098600
37.020000 0.883752
37.040000 -0.401729
37.060000 -1.644191
37.080000 -2.973209
37.100000 -4.270971
37.120000 -5.536301
37.140000 -6.756316
37.160000 -7.836284
37.180000 -8.829402
37.200000 -9.694797
37.220000 -10.405200
37.240000 -11.012440
37.260000 -11.485110
37.280000 -11.859670
37.300000 -12.136980
37.320000 -12.321520
37.340000 -12.330380
37.360000 -12.187960
37.380000 -11.906610
37.400000 -11.480900
37.420000 -10.894380
37.440000 -10.203150
37.460000 -9.428522
37.480000 -8.618036
37.500000 -7.681435
37.520000 -6.695261
37.540000 -5.700602
37.560000 -4.513789
37.580000 -3.329790
37.600000 -2.060511
37.620000 -0.743845
37.640000 0.540110
37.660000 1.863274
37.680000 3.125649
37.700000 4.273295
37.720000 5.423490
37.740000 6.545649
37.760000 7.579616
37.780000 8.569164
37.800000 9.487841
37.820000 10.295470
37.840000 10.937820
37.860000 11.473940
37.880000 11.784460
37.900000 11.956200
37.920000 12.027090
37.940000 11.904230
37.960000 11.723020
37.980000 11.451000
38.000000 11.065260
38.020000 10.666070
38.040000 10.052250
38.060000 9.355593
38.080000 8.602814
38.100000 7.640867
38.120000 6.584019
38.140000 5.533892
38.160000 4.365591
38.180000 3.258107
38.200000 2.047362
38.220000 0.812545
38.240000 -0.355111
38.260000 -1.679564
38.280000 -2.992477
38.300000 -4.278168
38.320000 -5.525756
38.340000 -6.725523
38.360000 -7.872819
38.380000 -8.785530
38.400000 -9.620383
38.420000 -10.382040
38.440000 -10.936280
38.460000 -11.431590
38.480000 -11.807150
38.500000 -12.079890
38.520000 -12.255050
38.540000 -12.236490
38.560000 -12.095170
38.580000 -11.837580
38.600000 -11.346260
38.620000 -10.775390
38.640000 -10.117710
38.660000 -9.323609
38.680000 -8.508641
38.700000 -7.597512
38.720000 -6.652817
38.740000 -5.602467
38.760000 -4.425162
38.780000 -3.274295
38.800000 -2.028696
38.820000 -0.675452
38.840000 0.584893
38.860000 1.822874
38.880000 3.045872
38.900000 4.243524
38.920000 5.346555
38.940000 6.386879
38.960000 7.440213
38.980000 8.440823
39.000000 9.346631
39.020000 10.101870
39.040000 10.753830
39.060000 11.316760
39.080000 11.617440
39.100000 11.766010
39.120000 11.852480
39.140000 11.781720
39.160000 11.573500
39.180000 11.334720
39.200000 10.974560
39.220000 10.553410
39.240000 10.003600
39.260000 9.275228
39.280000 8.554936
39.300000 7.613308
39.320000 6.571976
39.340000 5.537253
39.360000 4.421899
39.380000 3.290889
39.400000 2.111218
39.420000 0.924278
39.440000 -0.268024
39.460000 -1.546420
39.480000 -2.861406
39.500000 -4.129635
39.520000 -5.361525
39.540000 -6.554948
39.560000 -7.669252
39.580000 -8.615627
39.600000 -9.459932
39.620000 -10.201050
39.640000 -10.776280
39.660000 -11.280190
39.680000 -11.668780
39.700000 -11.946220
39.720000 -12.143060
39.740000 -12.109340
39.760000 -12.019060
39.780000 -11.764900
39.800000 -11.265510
39.820000 -10.765800
39.840000 -10.101190
39.860000 -9.348955
39.880000 -8.566251
39.900000 -7.632157
39.920000 -6.753207
39.940000 -5.724506
39.960000 -4.525314
39.980000 -3.443162
40.000000 -2.153914
40.020000 -0.879075
40.040000 0.369213
40.060000 1.684367
40.080000 2.837544
40.100000 4.025408
40.120000 5.181091
40.140000 6.206698
40.160000 7.277647
40.180000 8.281549
40.200000 9.181153
40.220000 10.009050
40.240000 10.647290
40.260000 11.213700
40.280000 11.586290
40.300000 11.711340
40.320000 11.831080
40.340000 11.761680
40.360000 11.596870
40.380000 11.372360
40.400000 10.995880
40.420000 10.595040
40.440000 10.039200
40.460000 9.382045
40.480000 8.606931
40.500000 7.684991
40.520000 6.711673
40.540000 5.637195
40.560000 4.522485
40.580000 3.410800
40.600000 2.261068
40.620000 1.065782
40.640000 -0.115444
40.660000 -1.408893
40.680000 -2.707621
40.700000 -3.959410
40.720000 -5.234780
40.740000 -6.417155
40.760000 -7.501967
40.780000 -8.531775
40.800000 -9.388319
40.820000 -10.094510
40.840000 -10.735810
40.860000 -11.255510
40.880000 -11.664100
40.900000 -11.985050
40.920000 -12.101850
40.940000 -12.200390
40.960000 -12.104150
40.980000 -11.808620
41.000000 -11.422970
41.020000 -10.873770
41.040000 -10.269410
41.060000 -9.513061
41.080000 -8.663014
41.100000 -7.842417
41.120000 -6.883089
41.140000 -5.846307
41.160000 -4.730141
41.180000 -3.528750
41.200000 -2.338086
41.220000 -1.007150
41.240000 0.270069
41.260000 1.531044
41.280000 2.802116
41.300000 3.941682
41.320000 5.085771
41.340000 6.211137
41.360000 7.242037
41.380000 8.268078
41.400000 9.175552
41.420000 9.997857
41.440000 10.743230
41.460000 11.248750
41.480000 11.608190
41.500000 11.834720
41.520000 11.924440
41.540000 11.889100
41.560000 11.705760
41.580000 11.470380
41.600000 11.175390
41.620000 10.720950
41.640000 10.204580
41.660000 9.527862
41.680000 8.766947
41.700000 7.884063
41.720000 6.845083
41.740000 5.808988
41.760000 4.689153
41.780000 3.534758
41.800000 2.399981
41.820000 1.176563
41.840000 -0.048788
41.860000 -1.301095
41.880000 -2.638626
41.900000 -3.896171
41.920000 -5.200654
41.940000 -6.426621
41.960000 -7.512008
41.980000 -8.554376
42.000000 -9.438563
42.020000 -10.204000
42.040000 -10.829010
42.060000 -11.326820
42.080000 -11.798820
42.100000 -12.096840
42.120000 -12.250560
42.140000 -12.327860
42.160000 -12.233940
42.180000 -11.968430
42.200000 -11.559040
42.220000 -11.014260
42.240000 -10.403630
42.260000 -9.637047
42.280000 -8.778038
42.300000 -7.960228
42.320000 -6.951579
42.340000 -5.951795
42.360000 -4.814385
42.380000 -3.588951
42.400000 -2.393301
42.420000 -1.081396
42.440000 0.223242
42.460000 1.499340
42.480000 2.786768
42.500000 3.952786
42.520000 5.103317
42.540000 6.265064
42.560000 7.318201
42.580000 8.309766
42.600000 9.245975
42.620000 10.099840
42.640000 10.850890
42.660000 11.319580
42.680000 11.695930
42.700000 11.983940
42.720000 12.036400
42.740000 12.017250
42.760000 11.804380
42.780000 11.599870
42.800000 11.312310
42.820000 10.806500
42.840000 10.287880
42.860000 9.650266
42.880000 8.872435
42.900000 7.974063
42.920000 6.939858
42.940000 5.867859
42.960000 4.790005
42.980000 3.603836
43.000000 2.432539
43.020000 1.237533
43.040000 -0.036941
43.060000 -1.275217
43.080000 -2.602288
43.100000 -3.936052
43.120000 -5.200178
43.140000 -6.397326
43.160000 -7.519136
43.180000 -8.567357
43.200000 -9.425162
43.220000 -10.200990
43.240000 -10.822080
43.260000 -11.360480
43.280000 -11.820910
43.300000 -12.067200
43.320000 -12.301860
43.340000 -12.366130
43.360000 -12.235410
43.380000 -12.019470
43.400000 -11.615500
43.420000 -11.129890
43.440000 -10.469130
43.460000 -9.723881
43.480000 -8.956329
43.500000 -8.045270
43.520000 -7.092075
43.540000 -6.075683
43.560000 -4.935066
43.580000 -3.761444
43.600000 -2.504124
43.620000 -1.184195
43.640000 0.040666
43.660000 1.390114
43.680000 2.649745
43.700000 3.819390
43.720000 5.051546
43.740000 6.134385
43.760000 7.244249
43.780000 8.289433
43.800000 9.216638
43.820000 10.120900
43.840000 10.796260
43.860000 11.341020
43.880000 11.803510
43.900000 11.999090
43.920000 12.112390
43.940000 12.084580
43.960000 11.967190
43.980000 11.762090
44.000000 11.391160
44.020000 10.990890
44.040000 10.472780
44.060000 9.827170
44.080000 9.039593
44.100000 8.115945
44.120000 7.151225
44.140000 6.094419
44.160000 4.938539
44.180000 3.795122
44.200000 2.590119
44.220000 1.377763
44.240000 0.101300
44.260000 -1.250277
44.280000 -2.546022
44.300000 -3.885864
44.320000 -5.197741
44.340000 -6.399286
44.360000 -7.587556
44.380000 -8.594482
44.400000 -9.476946
44.420000 -10.311560
44.440000 -10.941870
44.460000 -11.509020
44.480000 -11.939200
44.500000 -12.252710
44.520000 -12.490880
44.540000 -12.513590
44.560000 -12.396340
44.580000 -12.179340
44.600000 -11.776260
44.620000 -11.293600
44.640000 -10.572650
44.660000 -9.841202
44.680000 -9.077122
44.700000 -8.084101
44.720000 -7.126495
44.740000 -6.075262
44.760000 -4.890844
44.780000 -3.740705
44.800000 -2.392923
44.820000 -1.086885
44.840000 0.151671
44.860000 1.518833
44.880000 2.778114
44.900000 3.982977
44.920000 5.204855
44.940000 6.295325
44.960000 7.396130
44.980000 8.494946
45.000000 9.405529
45.020000 10.224600
45.040000 10.921420
45.060000 11.513860
45.080000 11.893730
45.100000 12.075260
45.120000 12.156730
45.140000 12.179650
45.160000 12.057840
45.180000 11.744620
45.200000 11.381280
45.220000 11.018520
45.240000 10.439870
45.260000 9.707862
45.280000 8.932271
45.300000 8.005654
45.320000 7.026525
45.340000 5.931602
45.360000 4.758344
45.380000 3.646519
45.400000 2.434317
45.420000 1.121978
45.440000 -0.128859
45.460000 -1.463982
45.480000 -2.804062
45.500000 -4.098701
45.520000 -5.392780
45.540000 -6.614896
45.560000 -7.698939
45.580000 -8.749233
45.600000 -9.619822
45.620000 -10.366870
45.640000 -11.061480
45.660000 -11.538610
45.680000 -11.961960
45.700000 -12.300890
45.720000 -12.450930
45.740000 -12.427220
45.760000 -12.329940
45.780000 -12.069080
45.800000 -11.601560
45.820000 -11.115170
45.840000 -10.391490
45.860000 -9.678006
45.880000 -8.880109
45.900000 -7.859935
45.920000 -6.961577
45.940000 -5.884453
45.960000 -4.704137
45.980000 -3.496865
46.000000 -2.223132
46.020000 -0.956234
46.040000 0.348222
46.060000 1.642889
46.080000 2.901105
46.100000 4.090929
46.120000 5.272617
46.140000 6.425319
46.160000 7.469382
46.180000 8.475901
46.200000 9.473543
46.220000 10.216860
46.240000 10.920320
46.260000 11.501010
46.280000 11.778550
46.300000 12.047820
46.320000 12.120950
46.340000 12.055250
46.360000 11.964450
46.380000 11.665970
46.400000 11.304900
46.420000 10.905050
46.440000 10.307220
46.460000 9.591746
46.480000 8.812542
46.500000 7.922390
46.520000 6.889012
46.540000 5.802631
46.560000 4.693354
46.580000 3.536130
46.600000 2.342749
46.620000 1.109333
46.640000 -0.231168
46.660000 -1.458255
46.680000 -2.809243
46.700000 -4.140459
46.720000 -5.381466
46.740000 -6.623620
46.760000 -7.681308
46.780000 -8.721969
46.800000 -9.640800
46.820000 -10.347260
46.840000 -11.015260
46.860000 -11.551600
46.880000 -11.950460
46.900000 -12.301690
46.920000 -12.425830
46.940000 -12.440180
46.960000 -12.380320
46.980000 -12.052820
47.000000 -11.639510
47.020000 -11.134020
47.040000 -10.462760
47.060000 -9.719232
47.080000 -8.871441
47.100000 -7.967635
47.120000 -6.974293
47.140000 -5.927107
47.160000 -4.762139
47.180000 -3.524871
47.200000 -2.303120
47.220000 -0.981986
47.240000 0.323632
47.260000 1.621548
47.280000 2.902436
47.300000 4.099808
47.320000 5.270391
47.340000 6.448578
47.360000 7.521740
47.380000 8.541479
47.400000 9.466472
47.420000 10.310380
47.440000 11.019610
47.460000 11.518590
47.480000 11.885650
47.500000 12.129590
47.520000 12.239950
47.540000 12.165280
47.560000 11.979570
47.580000 11.764540
47.600000 11.417290
47.620000 10.956740
47.640000 10.333340
47.660000 9.659242
47.680000 8.935310
47.700000 7.929882
47.720000 6.899935
47.740000 5.867186
47.760000 4.708072
47.780000 3.555651
47.800000 2.305822
47.820000 1.033266
47.840000 -0.196467
47.860000 -1.559163
47.880000 -2.845022
47.900000 -4.198349
47.920000 -5.472067
47.940000 -6.648140
47.960000 -7.791179
47.980000 -8.791621
48.000000 -9.725240
48.020000 -10.454730
48.040000 -11.053960
48.060000 -11.625310
48.080000 -12.074570
48.100000 -12.280480
48.120000 -12.464160
48.140000 -12.500380
48.160000 -12.351070
48.180000 -12.095910
48.200000 -11.624430
48.220000 -11.129900
48.240000 -10.471650
48.260000 -9.661497
48.280000 -8.859678
48.300000 -7.916369
48.320000 -6.928404
48.340000 -5.877213
48.360000 -4.712749
48.380000 -3.499567
48.400000 -2.226563
48.420000 -0.971105
48.440000 0.359480
48.460000 1.641321
48.480000 2.909984
48.500000 4.130349
48.520000 5.234094
48.540000 6.452415
48.560000 7.523855
48.580000 8.474515
48.600000 9.447119
48.620000 10.290290
48.640000 10.946360
48.660000 11.453070
48.680000 11.849050
48.700000 12.078520
48.720000 12.183250
48.740000 12.099830
48.760000 11.972890
48.780000 11.778900
48.800000 11.369610
48.820000 10.902460
48.840000 10.375470
48.860000 9.702428
48.880000 8.862787
48.900000 7.971598
48.920000 6.949353
48.940000 5.870757
48.960000 4.770093
48.980000 3.550343
49.000000 2.394590
49.020000 1.106434
49.040000 -0.197097
49.060000 -1.442543
49.080000 -2.812632
49.100000 -4.154729
49.120000 -5.390162
49.140000 -6.562538
49.160000 -7.723067
49.180000 -8.734376
49.200000 -9.627048
49.220000 -10.361370
49.240000 -10.981850
49.260000 -11.598470
49.280000 -11.967070
49.300000 -12.232980
49.320000 -12.410650
49.340000 -12.486630
49.360000 -12.299480
49.380000 -12.051300
49.400000 -11.662980
49.420000 -11.102340
49.440000 -10.485100
49.460000 -9.683986
49.480000 -8.887628
49.500000 -7.981303
49.520000 -6.963566
49.540000 -5.939584
49.560000 -4.784866
49.580000 -3.583896
49.600000 -2.309967
49.620000 -1.073078
49.640000 0.231742
49.660000 1.551559
49.680000 2.786852
49.700000 4.011852
49.720000 5.161067
49.740000 6.309959
49.760000 7.399309
49.780000 8.428822
49.800000 9.313639
49.820000 10.208750
49.840000 10.870490
49.860000 11.399450
49.880000 11.847390
49.900000 11.996950
49.920000 12.159960
49.940000 12.145130
49.960000 11.975160
49.980000 11.744830
50.000000 11.425150
50.020000 10.962270
50.040000 10.400380
50.060000 9.768412
50.080000 8.932775
50.100000 8.066275
50.120000 7.058019
50.140000 5.968431
50.160000 4.912325
50.180000 3.681177
50.200000 2.478386
50.220000 1.236217
50.240000 -0.058842
50.260000 -1.391529
50.280000 -2.697440
50.300000 -4.027942
50.320000 -5.304881
50.340000 -6.490084
50.360000 -7.646958
50.380000 -8.637318
50.400000 -9.554917
50.420000 -10.329890
50.440000 -10.975710
50.460000 -11.549230
50.480000 -11.949880
50.500000 -12.268460
50.520000 -12.418140
50.540000 -12.498270
50.560000 -12.386440
50.580000 -12.078760
50.600000 -11.734750
50.620000 -11.188350
50.640000 -10.549580
50.660000 -9.813125
50.680000 -8.954789
50.700000 -8.066863
50.720000 -7.090941
50.740000 -6.010819
50.760000 -4.856241
50.780000 -3.676724
50.800000 -2.413270
50.820000 -1.119247
50.840000 0.162943
50.860000 1.456742
50.880000 2.738666
50.900000 3.916489
50.920000 5.121451
50.940000 6.273984
50.960000 7.319307
50.980000 8.390215
51.000000 9.314619
51.020000 10.129870
51.040000 10.867720
51.060000 11.369070
51.080000 11.787350
51.100000 12.033790
51.120000 12.116990
51.140000 12.145810
51.160000 11.979840
51.180000 11.755290
51.200000 11.449000
51.220000 10.975430
51.240000 10.457210
51.260000 9.790986
51.280000 9.000580
51.300000 8.160028
51.320000 7.111876
51.340000 6.071734
51.360000 4.947333
51.380000 3.766051
51.400000 2.589320
51.420000 1.322632
51.440000 0.046071
51.460000 -1.298686
51.480000 -2.604598
51.500000 -3.914319
51.520000 -5.225958
51.540000 -6.437726
51.560000 -7.582277
51.580000 -8.599257
51.600000 -9.536390
51.620000 -10.338220
51.640000 -11.015990
51.660000 -11.560230
51.680000 -11.975790
51.700000 -12.335260
51.720000 -12.499350
51.740000 -12.548280
51.760000 -12.434180
51.780000 -12.178840
51.800000 -11.825350
51.820000 -11.305590
51.840000 -10.611400
51.860000 -9.864251
51.880000 -9.101782
51.900000 -8.103006
51.920000 -7.135471
51.940000 -6.065586
51.960000 -4.909790
51.980000 -3.737190
52.000000 -2.392825
52.020000 -1.141372
52.040000 0.152203
52.060000 1.483503
52.080000 2.747642
52.100000 3.995861
52.120000 5.145257
52.140000 6.306962
52.160000 7.422610
52.180000 8.414511
52.200000 9.372943
52.220000 10.217820
52.240000 10.887870
52.260000 11.452540
52.280000 11.841260
52.300000 12.081450
52.320000 12.205940
52.340000 12.142580
52.360000 12.026790
52.380000 11.799240
52.400000 11.438310
52.420000 10.987770
52.440000 10.445950
52.460000 9.814273
52.480000 9.022761
52.500000 8.097629
52.520000 7.115362
52.540000 6.060769
52.560000 4.931720
52.580000 3.732429
52.600000 2.540701
52.620000 1.304386
52.640000 0.000378
52.660000 -1.326175
52.680000 -2.629524
52.700000 -3.937060
52.720000 -5.218859
52.740000 -6.450623
52.760000 -7.596056
52.780000 -8.586528
52.800000 -9.516170
52.820000 -10.315570
52.840000 -10.973700
52.860000 -11.504090
52.880000 -11.959350
52.900000 -12.261030
52.920000 -12.481790
52.940000 -12.512680
52.960000 -12.363730
52.980000 -12.176390
53.000000 -11.811040
53.020000 -11.249510
53.040000 -10.622550
53.060000 -9.870077
53.080000 -9.067964
53.100000 -8.158277
53.120000 -7.097228
53.140000 -6.083748
53.160000 -4.962975
53.180000 -3.709142
53.200000 -2.429052
53.220000 -1.132032
53.240000 0.125456
53.260000 1.434309
53.280000 2.775943
53.300000 3.971481
53.320000 5.131141
53.340000 6.276057
53.360000 7.416491
53.380000 8.460288
53.400000 9.342794
53.420000 10.187240
53.440000 10.906970
53.460000 11.456590
53.480000 11.817570
53.500000 12.030040
53.520000 12.175140
53.540000 12.182910
53.560000 11.982360
53.580000 11.770590
53.600000 11.440410
53.620000 10.999270
53.640000 10.457200
53.660000 9.758624
53.680000 9.031023
53.700000 8.123591
53.720000 7.091893
53.740000 6.068275
53.760000 4.942908
53.780000 3.777212
53.800000 2.556315
53.820000 1.310589
53.840000 0.022503
53.860000 -1.308713
53.880000 -2.609653
53.900000 -3.938461
53.920000 -5.217682
53.940000 -6.440120
53.960000 -7.578818
53.980000 -8.560650
54.000000 -9.522135
54.020000 -10.339790
54.040000 -10.943970
54.060000 -11.523230
54.080000 -12.014400
54.100000 -12.289410
54.120000 -12.494840
54.140000 -12.539750
54.160000 -12.437780
54.180000 -12.237000
54.200000 -11.770540
54.220000 -11.305740
54.240000 -10.698730
54.260000 -9.894134
54.280000 -9.084740
54.300000 -8.166469
54.320000 -7.161307
54.340000 -6.071369
54.360000 -4.930977
54.380000 -3.691203
54.400000 -2.435255
54.420000 -1.089420
54.440000 0.179901
54.460000 1.440946
54.480000 2.790619
54.500000 4.020478
54.520000 5.181274
54.540000 6.299344
54.560000 7.465153
54.580000 8.552864
54.600000 9.403232
54.620000 10.210860
54.640000 10.940260
54.660000 11.509160
54.680000 11.852020
54.700000 12.030630
54.720000 12.167660
54.740000 12.227030
54.760000 12.070480
54.780000 11.754450
54.800000 11.450440
54.820000 11.052410
54.840000 10.504600
54.860000 9.768468
54.880000 8.979953
54.900000 8.140815
54.920000 7.154572
54.940000 6.049356
54.960000 4.899358
54.980000 3.802236
55.000000 2.589026
55.020000 1.268033
55.040000 -0.075296
55.060000 -1.338638
55.080000 -2.649535
55.100000 -4.046427
55.120000 -5.322399
55.140000 -6.486037
55.160000 -7.624231
55.180000 -8.654809
55.200000 -9.591270
55.220000 -10.359100
55.240000 -11.056500
55.260000 -11.628490
55.280000 -12.049800
55.300000 -12.360300
55.320000 -12.579970
55.340000 -12.569740
55.360000 -12.425160
55.380000 -12.200570
55.400000 -11.821250
55.420000 -11.304160
55.440000 -10.578520
55.460000 -9.909006
55.480000 -9.092176
55.500000 -8.064315
55.520000 -7.062444
55.540000 -6.036487
55.560000 -4.861605
55.580000 -3.586220
55.600000 -2.286022
55.620000 -1.057100
55.640000 0.200570
55.660000 1.577871
55.680000 2.830696
55.700000 4.029553
55.720000 5.204631
55.740000 6.366434
55.760000 7.521628
55.780000 8.484318
55.800000 9.419882
55.820000 10.214170
55.840000 10.890220
55.860000 11.455940
55.880000 11.779030
55.900000 12.011470
55.920000 12.116520
55.940000 12.166380
55.960000 12.042070
55.980000 11.707560
56.000000 11.415380
56.020000 11.057250
56.040000 10.445990
56.060000 9.719358
56.080000 8.941920
56.100000 8.125971
56.120000 7.196218
56.140000 6.002095
56.160000 4.923374
56.180000 3.884702
56.200000 2.607105
56.220000 1.291040
56.240000 -0.029393
56.260000 -1.292959
56.280000 -2.597624
56.300000 -4.005733
56.320000 -5.274214
56.340000 -6.447290
56.360000 -7.575051
56.380000 -8.625051
56.400000 -9.590009
56.420000 -10.350420
56.440000 -11.051330
56.460000 -11.640440
56.480000 -12.039090
56.500000 -12.445740
56.520000 -12.584590
56.540000 -12.569380
56.560000 -12.502470
56.580000 -12.232980
56.600000 -11.870710
56.620000 -11.311600
56.640000 -10.656720
56.660000 -9.957458
56.680000 -9.104849
56.700000 -8.088820
56.720000 -7.102563
56.740000 -6.065068
56.760000 -4.842168
56.780000 -3.577412
56.800000 -2.325777
56.820000 -1.076691
56.840000 0.245577
56.860000 1.574945
56.880000 2.832405
56.900000 4.041498
56.920000 5.239373
56.940000 6.431746
56.960000 7.505384
56.980000 8.486306
57.000000 9.441476
57.020000 10.243010
57.040000 10.881150
57.060000 11.399260
57.080000 11.787080
57.100000 12.006930
57.120000 12.105030
57.140000 12.116730
57.160000 11.961840
57.180000 11.731150
57.200000 11.384760
57.220000 10.954020
57.240000 10.388850
57.260000 9.680569
57.280000 8.982711
57.300000 8.079032
57.320000 7.075061
57.340000 6.083034
57.360000 4.931131
57.380000 3.830061
57.400000 2.616277
57.420000 1.281588
57.440000 0.032250
57.460000 -1.232254
57.480000 -2.632157
57.500000 -3.943656
57.520000 -5.192602
57.540000 -6.395715
57.560000 -7.534343
57.580000 -8.599957
57.600000 -9.521827
57.620000 -10.315920
57.640000 -11.021570
57.660000 -11.628930
57.680000 -12.052990
57.700000 -12.369790
57.720000 -12.565510
57.740000 -12.592920
57.760000 -12.457460
57.780000 -12.220990
57.800000 -11.834790
57.820000 -11.313750
57.840000 -10.672950
57.860000 -9.930333
57.880000 -9.074335
57.900000 -8.121028
57.920000 -7.086516
57.940000 -6.022470
57.960000 -4.834900
57.980000 -3.579526
58.000000 -2.338310
58.020000 -1.052451
58.040000 0.260743
58.060000 1.540482
58.080000 2.822603
58.100000 4.054899
58.120000 5.233072
58.140000 6.389876
58.160000 7.480626
58.180000 8.519592
58.200000 9.433942
58.220000 10.195080
58.240000 10.864670
58.260000 11.420990
58.280000 11.799250
58.300000 11.969910
58.320000 12.090870
58.340000 12.149980
58.360000 11.974040
58.380000 11.715090
58.400000 11.387730
58.420000 10.957480
58.440000 10.410190
58.460000 9.715732
58.480000 8.929022
58.500000 8.099211
58.520000 7.096640
58.540000 6.020719
58.560000 4.946339
58.580000 3.770252
58.600000 2.548137
58.620000 1.265932
58.640000 -0.016440
58.660000 -1.347460
58.680000 -2.672865
58.700000 -3.971005
58.720000 -5.275488
58.740000 -6.461083
58.760000 -7.590497
58.780000 -8.635232
58.800000 -9.530467
58.820000 -10.384150
58.840000 -11.035340
58.860000 -11.566960
58.880000 -12.060780
58.900000 -12.351180
58.920000 -12.524150
58.940000 -12.544190
58.960000 -12.383080
58.980000 -12.191640
59.000000 -11.816990
59.020000 -11.230990
59.040000 -10.618720
59.060000 -9.859000
59.080000 -9.035210
59.100000 -8.066947
59.120000 -7.005940
59.140000 -6.014894
59.160000 -4.808644
59.180000 -3.549279
59.200000 -2.283571
59.220000 -1.025368
59.240000 0.218186
59.260000 1.595614
59.280000 2.863366
59.300000 4.027340
59.320000 5.222878
59.340000 6.390506
59.360000 7.509893
59.380000 8.487188
59.400000 9.377788
59.420000 10.195070
59.440000 10.875040
59.460000 11.377720
59.480000 11.767700
59.500000 11.936040
59.520000 12.092480
59.540000 12.104680
59.560000 11.952780
59.580000 11.687710
59.600000 11.336360
59.620000 10.981970
59.640000 10.367670
59.660000 9.676424
59.680000 8.926796
59.700000 8.076834
59.720000 7.130360
59.740000 5.991522
59.760000 4.922757
59.780000 3.822737
59.800000 2.572810
59.820000 1.278969
59.840000 -0.032362
59.860000 -1.314790
59.880000 -2.616221
59.900000 -3.987515
59.920000 -5.252355
59.940000 -6.396108
59.960000 -7.564632
59.980000 -8.577538
60.000000 -9.518032
60.020000 -10.346330
60.040000 -10.967880
60.060000 -11.591690
60.080000 -12.018390
60.100000 -12.338200
60.120000 -12.520280
60.140000 -12.510450
60.160000 -12.434230
60.180000 -12.176840
60.200000 -11.800480
60.220000 -11.280090
60.240000 -10.611510
60.260000 -9.913277
60.280000 -9.036736
60.300000 -8.058181
60.320000 -7.067513
60.340000 -5.979031
60.360000 -4.805619
60.380000 -3.558703
60.400000 -2.278124
60.420000 -1.040968
60.440000 0.263235
60.460000 1.578039
60.480000 2.837082
60.500000 4.065247
60.520000 5.225524
60.540000 6.392537
60.560000 7.493467
60.580000 8.490871
60.600000 9.369008
60.620000 10.140360
60.640000 10.846310
60.660000 11.360880
60.680000 11.678090
60.700000 11.908210
60.720000 12.064520
60.740000 12.066450
60.760000 11.895370
60.780000 11.631690
60.800000 11.360340
60.820000 10.948170
60.840000 10.319320
60.860000 9.653221
60.880000 8.935688
60.900000 8.086902
60.920000 7.085983
60.940000 6.039022
60.960000 4.978309
60.980000 3.825132
61.000000 2.649605
61.020000 1.308236
61.040000 0.024394
61.060000 -1.228641
61.080000 -2.592261
61.100000 -3.912765
61.120000 -5.193008
61.140000 -6.397746
61.160000 -7.458893
61.180000 -8.539463
61.200000 -9.528226
61.220000 -10.282950
61.240000 -10.956990
61.260000 -11.575170
61.280000 -12.033850
61.300000 -12.366480
61.320000 -12.486060
61.340000 -12.537020
61.360000 -12.488970
61.380000 -12.191290
61.400000 -11.807340
61.420000 -11.308700
61.440000 -10.693190
61.460000 -9.915350
61.480000 -9.063441
61.500000 -8.109237
61.520000 -7.113724
61.540000 -6.017849
61.560000 -4.824636
61.580000 -3.606049
61.600000 -2.337148
61.620000 -1.056624
61.640000 0.229249
61.660000 1.519575
61.680000 2.825739
61.700000 4.044242
61.720000 5.169749
61.740000 6.386949
61.760000 7.484309
61.780000 8.444338
61.800000 9.370507
61.820000 10.141240
61.840000 10.842580
61.860000 11.348850
61.880000 11.667870
61.900000 11.953810
61.920000 12.101850
61.940000 12.065960
61.960000 11.934440
61.980000 11.716340
62.000000 11.410140
62.020000 10.968860
62.040000 10.361640
62.060000 9.763693
62.080000 9.014219
62.100000 8.101746
62.120000 7.156854
62.140000 6.112497
62.160000 5.021649
62.180000 3.869634
62.200000 2.658203
62.220000 1.377609
62.240000 0.069149
62.260000 -1.198212
62.280000 -2.563722
62.300000 -3.890639
62.320000 -5.162859
62.340000 -6.382524
62.360000 -7.459005
62.380000 -8.568072
62.400000 -9.556807
62.420000 -10.267270
62.440000 -10.981510
62.460000 -11.617110
62.480000 -12.047400
62.500000 -12.350040
62.520000 -12.505790
62.540000 -12.589950
62.560000 -12.497430
62.580000 -12.191430
62.600000 -11.836670
62.620000 -11.346860
62.640000 -10.691290
62.660000 -9.933960
62.680000 -9.087807
62.700000 -8.156681
62.720000 -7.103880
62.740000 -6.042004
62.760000 -4.891418
62.780000 -3.608892
62.800000 -2.372226
62.820000 -1.097682
62.840000 0.187477
62.860000 1.514842
62.880000 2.826649
62.900000 3.978818
62.920000 5.170533
62.940000 6.385563
62.960000 7.445842
62.980000 8.444422
63.000000 9.358786
63.020000 10.189590
63.040000 10.846340
63.060000 11.343450
63.080000 11.731260
63.100000 11.991390
63.120000 12.111890
63.140000 12.072990
63.160000 11.988350
63.180000 11.768950
63.200000 11.383480
63.220000 10.980240
63.240000 10.450100
63.260000 9.746385
63.280000 9.034076
63.300000 8.150869
63.320000 7.196442
63.340000 6.156860
63.360000 5.013625
63.380000 3.895807
63.400000 2.706907
63.420000 1.370271
63.440000 0.083460
63.460000 -1.182080
63.480000 -2.550881
63.500000 -3.894784
63.520000 -5.148604
63.540000 -6.342825
63.560000 -7.499209
63.580000 -8.599019
63.600000 -9.503973
63.620000 -10.283290
63.640000 -11.010970
63.660000 -11.608010
63.680000 -12.056660
63.700000 -12.344080
63.720000 -12.561030
63.740000 -12.622510
63.760000 -12.503230
63.780000 -12.257500
63.800000 -11.883630
63.820000 -11.392960
63.840000 -10.744310
63.860000 -9.999650
63.880000 -9.125168
63.900000 -8.169592
63.920000 -7.163324
63.940000 -6.096057
63.960000 -4.901248
63.980000 -3.619884
64.000000 -2.403468
64.020000 -1.120297
64.040000 0.208720
64.060000 1.525765
64.080000 2.791865
64.100000 3.987543
64.120000 5.222499
64.140000 6.390954
64.160000 7.455476
64.180000 8.457375
64.200000 9.400096
64.220000 10.206520
64.240000 10.858420
64.260000 11.389250
64.280000 11.779590
64.300000 12.015550
64.320000 12.127730
64.340000 12.154670
64.360000 12.021060
64.380000 11.783200
64.400000 11.455380
64.420000 11.049150
64.440000 10.483870
64.460000 9.800788
64.480000 9.075736
64.500000 8.195862
64.520000 7.212770
64.540000 6.156552
64.560000 5.044797
64.580000 3.930479
64.600000 2.664098
64.620000 1.363956
64.640000 0.108148
64.660000 -1.236847
64.680000 -2.572656
64.700000 -3.908564
64.720000 -5.223326
64.740000 -6.378645
64.760000 -7.561412
64.780000 -8.650103
64.800000 -9.521295
64.820000 -10.389560
64.840000 -11.072100
64.860000 -11.635140
64.880000 -12.118650
64.900000 -12.401610
64.920000 -12.600830
64.940000 -12.651220
64.960000 -12.501620
64.980000 -12.281780
65.000000 -11.892230
65.020000 -11.358930
65.040000 -10.743540
65.060000 -9.958326
65.080000 -9.115953
65.100000 -8.144414
65.120000 -7.110573
65.140000 -6.069227
65.160000 -4.846383
65.180000 -3.611496
65.200000 -2.365757
65.220000 -1.060013
65.240000 0.229319
65.260000 1.566585
65.280000 2.793812
65.300000 4.041988
65.320000 5.240662
65.340000 6.395547
65.360000 7.514977
65.380000 8.497957
65.400000 9.411326
65.420000 10.225540
65.440000 10.887310
65.460000 11.404590
65.480000 11.774530
65.500000 12.002990
65.520000 12.147010
65.540000 12.171590
65.560000 12.008470
65.580000 11.754310
65.600000 11.475830
65.620000 11.030260
65.640000 10.436340
65.660000 9.792148
65.680000 9.040811
65.700000 8.176103
65.720000 7.199145
65.740000 6.075290
65.760000 5.075450
65.780000 3.902318
65.800000 2.605802
65.820000 1.372736
65.840000 0.034308
65.860000 -1.227815
65.880000 -2.608799
65.900000 -3.983089
65.920000 -5.173922
65.940000 -6.411287
65.960000 -7.562280
65.980000 -8.611636
66.000000 -9.554637
66.020000 -10.329840
66.040000 -11.060290
66.060000 -11.665560
66.080000 -12.063140
66.100000 -12.399220
66.120000 -12.615340
66.140000 -12.647870
66.160000 -12.527510
66.180000 -12.259670
66.200000 -11.927680
66.220000 -11.396070
66.240000 -10.718990
66.260000 -9.995799
66.280000 -9.105619
66.300000 -8.194238
66.320000 -7.141549
66.340000 -6.034807
66.360000 -4.898181
66.380000 -3.612322
66.400000 -2.336784
66.420000 -1.078245
66.440000 0.265378
66.460000 1.537584
66.480000 2.806499
66.500000 4.076898
66.520000 5.264369
66.540000 6.418065
66.560000 7.512764
66.580000 8.515993
66.600000 9.482281
66.620000 10.249820
66.640000 10.890980
66.660000 11.431650
66.680000 11.832350
66.700000 12.057080
66.720000 12.142390
66.740000 12.185740
66.760000 12.067200
66.780000 11.810970
66.800000 11.478280
66.820000 11.028170
66.840000 10.508670
66.860000 9.800088
66.880000 9.040811
66.900000 8.180683
66.920000 7.172734
66.940000 6.156482
66.960000 5.020333
66.980000 3.841950
67.000000 2.643275
67.020000 1.330740
67.040000 0.014928
67.060000 -1.298308
67.080000 -2.686084
67.100000 -3.981143
67.120000 -5.257550
67.140000 -6.489286
67.160000 -7.606769
67.180000 -8.659248
67.200000 -9.598439
67.220000 -10.434120
67.240000 -11.090400
67.260000 -11.673540
67.280000 -12.133890
67.300000 -12.453640
67.320000 -12.598440
67.340000 -12.640220
67.360000 -12.516460
67.380000 -12.271230
67.400000 -11.891760
67.420000 -11.351590
67.440000 -10.718020
67.460000 -9.945107
67.480000 -9.082485
67.500000 -8.129934
67.520000 -7.077259
67.540000 -5.999574
67.560000 -4.800844
67.580000 -3.570298
67.600000 -2.291819
67.620000 -0.979648
67.640000 0.286747
67.660000 1.570772
67.680000 2.874471
67.700000 4.139423
67.720000 5.262899
67.740000 6.422574
67.760000 7.552730
67.780000 8.543398
67.800000 9.454961
67.820000 10.191660
67.840000 10.875620
67.860000 11.428360
67.880000 11.761550
67.900000 11.990770
67.920000 12.114630
67.940000 12.138360
67.960000 12.004790
67.980000 11.751090
68.000000 11.401580
68.020000 10.973110
68.040000 10.446190
68.060000 9.747953
68.080000 8.978412
68.100000 8.109825
68.120000 7.160817
68.140000 6.125324
68.160000 4.973029
68.180000 3.804295
68.200000 2.619764
68.220000 1.340430
68.240000 -0.010895
68.260000 -1.311513
68.280000 -2.661662
68.300000 -3.950406
68.320000 -5.236671
68.340000 -6.488558
68.360000 -7.567685
68.380000 -8.646659
68.400000 -9.565153
68.420000 -10.357340
68.440000 -11.080050
68.460000 -11.606060
68.480000 -12.075230
68.500000 -12.349460
68.520000 -12.537230
68.540000 -12.609330
68.560000 -12.443910
68.580000 -12.188920
68.600000 -11.830280
68.620000 -11.349220
68.640000 -10.688380
68.660000 -9.882386
68.680000 -9.065919
68.700000 -8.168612
68.720000 -7.078226
68.740000 -5.977309
68.760000 -4.839493
68.780000 -3.620234
68.800000 -2.351389
68.820000 -0.994799
68.840000 0.258516
68.860000 1.520864
68.880000 2.840415
68.900000 4.096587
68.920000 5.280207
68.940000 6.379528
68.960000 7.501547
68.980000 8.527070
69.000000 9.411200
69.020000 10.200190
69.040000 10.830400
69.060000 11.393870
69.080000 11.767250
69.100000 11.970950
69.120000 12.100740
69.140000 12.110000
69.160000 11.971860
69.180000 11.759410
69.200000 11.372340
69.220000 10.969270
69.240000 10.433430
69.260000 9.765612
69.280000 8.994096
69.300000 8.089675
69.320000 7.209269
69.340000 6.118701
69.360000 4.968744
69.380000 3.853852
69.400000 2.627508
69.420000 1.397116
69.440000 0.025808
69.460000 -1.328863
69.480000 -2.549425
69.500000 -3.932229
69.520000 -5.246599
69.540000 -6.388840
69.560000 -7.548347
69.580000 -8.596400
69.600000 -9.535382
69.620000 -10.377320
69.640000 -10.983410
69.660000 -11.621660
69.680000 -12.064420
69.700000 -12.308780
69.720000 -12.549690
69.740000 -12.559270
69.760000 -12.469800
69.780000 -12.204170
69.800000 -11.817010
69.820000 -11.376040
69.840000 -10.689340
69.860000 -9.913319
69.880000 -9.111878
69.900000 -8.138308
69.920000 -7.118457
69.940000 -6.038167
69.960000 -4.862319
69.980000 -3.654949
70.000000 -2.359917
70.020000 -1.086843
70.040000 0.195081
70.060000 1.534601
70.080000 2.789541
70.100000 4.013015
70.120000 5.230103
70.140000 6.383336
70.160000 7.452017
70.180000 8.454700
70.200000 9.388935
70.220000 10.174060
70.240000 10.851600
70.260000 11.365730
70.280000 11.756260
70.300000 12.027910
70.320000 12.088430
70.340000 12.109710
70.360000 12.039690
70.380000 11.762210
70.400000 11.436540
70.420000 11.036780
70.440000 10.491280
70.460000 9.815141
70.480000 9.079741
70.500000 8.197024
70.520000 7.239684
70.540000 6.207384
70.560000 5.067160
70.580000 3.919444
70.600000 2.686154
70.620000 1.377161
70.640000 0.093851
70.660000 -1.255514
70.680000 -2.617467
70.700000 -3.895106
70.720000 -5.203973
70.740000 -6.466054
70.760000 -7.582669
70.780000 -8.633803
70.800000 -9.547663
70.820000 -10.394810
70.840000 -11.132140
70.860000 -11.600280
70.880000 -12.043760
70.900000 -12.425690
70.920000 -12.602150
70.940000 -12.560290
70.960000 -12.432080
70.980000 -12.266500
71.000000 -11.846680
71.020000 -11.354640
71.040000 -10.667640
71.060000 -9.927266
71.080000 -9.164727
71.100000 -8.112094
71.120000 -7.089372
71.140000 -6.057058
71.160000 -4.867220
71.180000 -3.638089
71.200000 -2.364846
71.220000 -1.032580
71.240000 0.199198
71.260000 1.486163
71.280000 2.825445
71.300000 4.063217
71.320000 5.247775
71.340000 6.360371
71.360000 7.481522
71.380000 8.560048
71.400000 9.392996
71.420000 10.149070
71.440000 10.832890
71.460000 11.416800
71.480000 11.765110
71.500000 11.940100
71.520000 12.091050
71.540000 12.142110
71.560000 12.016880
71.580000 11.729600
71.600000 11.421340
71.620000 11.008400
71.640000 10.475250
71.660000 9.813153
71.680000 9.021487
71.700000 8.176818
71.720000 7.255858
71.740000 6.198506
71.760000 5.073966
71.780000 3.886396
71.800000 2.741579
71.820000 1.454740
71.840000 0.066656
71.860000 -1.236931
71.880000 -2.519360
71.900000 -3.871567
71.920000 -5.186791
71.940000 -6.426173
71.960000 -7.490877
71.980000 -8.527602
72.000000 -9.575852
72.020000 -10.337870
72.040000 -10.994030
72.060000 -11.585010
72.080000 -12.039620
72.100000 -12.385180
72.120000 -12.510240
72.140000 -12.551690
72.160000 -12.472940
72.180000 -12.220490
72.200000 -11.889150
72.220000 -11.344380
72.240000 -10.723230
72.260000 -9.984652
72.280000 -9.142896
72.300000 -8.202808
72.320000 -7.130178
72.340000 -6.103535
72.360000 -4.953411
72.380000 -3.686036
72.400000 -2.406254
72.420000 -1.117133
72.440000 0.119309
72.460000 1.445119
72.480000 2.824521
72.500000 4.008310
72.520000 5.158630
72.540000 6.364460
72.560000 7.498775
72.580000 8.511246
72.600000 9.391400
72.620000 10.157450
72.640000 10.877270
72.660000 11.411550
72.680000 11.768440
72.700000 11.952110
72.720000 12.130890
72.740000 12.184920
72.760000 12.002010
72.780000 11.787820
72.800000 11.435050
72.820000 11.055570
72.840000 10.567820
72.860000 9.820883
72.880000 9.100732
72.900000 8.306293
72.920000 7.316801
72.940000 6.277443
72.960000 5.128719
72.980000 3.964913
73.000000 2.820740
73.020000 1.493389
73.040000 0.077999
73.060000 -1.178075
73.080000 -2.503928
73.100000 -3.868934
73.120000 -5.206984
73.140000 -6.437431
73.160000 -7.527902
73.180000 -8.630751
73.200000 -9.622259
73.220000 -10.451400
73.240000 -11.103060
73.260000 -11.687240
73.280000 -12.187450
73.300000 -12.441790
73.320000 -12.602850
73.340000 -12.666090
73.360000 -12.523910
73.380000 -12.290960
73.400000 -11.926110
73.420000 -11.402960
73.440000 -10.765380
73.460000 -10.026000
73.480000 -9.154911
73.500000 -8.220214
73.520000 -7.154740
73.540000 -6.062925
73.560000 -4.959320
73.580000 -3.647765
73.600000 -2.376273
73.620000 -1.135155
73.640000 0.185433
73.660000 1.518091
73.680000 2.852038
73.700000 4.065009
73.720000 5.231041
73.740000 6.460411
73.760000 7.593283
73.780000 8.550792
73.800000 9.443800
73.820000 10.266050
73.840000 10.932820
73.860000 11.433340
73.880000 11.798000
73.900000 12.037310
73.920000 12.174050
73.940000 12.204970
73.960000 12.021130
73.980000 11.816560
74.000000 11.517960
74.020000 11.060260
74.040000 10.556630
74.060000 9.880509
74.080000 9.084460
74.100000 8.309640
74.120000 7.324321
74.140000 6.215814
74.160000 5.141490
74.180000 3.951918
74.200000 2.754182
74.220000 1.412239
74.240000 0.035863
74.260000 -1.244759
74.280000 -2.570024
74.300000 -3.961048
74.320000 -5.312541
74.340000 -6.464836
74.360000 -7.593129
74.380000 -8.707979
74.400000 -9.658906
74.420000 -10.468500
74.440000 -11.099730
74.460000 -11.694660
74.480000 -12.170680
74.500000 -12.423340
74.520000 -12.587070
74.540000 -12.625830
74.560000 -12.484310
74.580000 -12.263410
74.600000 -11.893100
74.620000 -11.337200
74.640000 -10.745090
74.660000 -9.980003
74.680000 -9.142126
74.700000 -8.155603
74.720000 -7.117029
74.740000 -6.053543
74.760000 -4.894765
74.780000 -3.621761
74.800000 -2.303148
74.820000 -1.111951
74.840000 0.226042
74.860000 1.614476
74.880000 2.844056
74.900000 4.100242
74.920000 5.283218
74.940000 6.454894
74.960000 7.615031
74.980000 8.508165
75.000000 9.407489
75.020000 10.264940
75.040000 10.834960
75.060000 11.368910
75.080000 11.764750
75.100000 11.954930
75.120000 12.132710
75.140000 12.105710
75.160000 12.003270
75.180000 11.792790
75.200000 11.428610
75.220000 11.051890
75.240000 10.503390
75.260000 9.837239
75.280000 9.068580
75.300000 8.248249
75.320000 7.305780
75.340000 6.196938
75.360000 5.092156
75.380000 3.983160
75.400000 2.728472
75.420000 1.404818
75.440000 0.038999
75.460000 -1.239844
75.480000 -2.543263
75.500000 -3.987206
75.520000 -5.286299
75.540000 -6.413556
75.560000 -7.595202
75.580000 -8.651868
75.600000 -9.617526
75.620000 -10.407880
75.640000 -11.030060
75.660000 -11.669820
75.680000 -12.094330
75.700000 -12.374200
75.720000 -12.567280
75.740000 -12.573510
75.760000 -12.461460
75.780000 -12.245970
75.800000 -11.861990
75.820000 -11.363560
75.840000 -10.723810
75.860000 -9.991906
75.880000 -9.187707
75.900000 -8.148629
75.920000 -7.110517
75.940000 -6.099544
75.960000 -4.909580
75.980000 -3.614381
76.000000 -2.328760
76.020000 -1.084981
76.040000 0.186833
76.060000 1.553435
76.080000 2.867819
76.100000 4.039285
76.120000 5.232274
76.140000 6.456560
76.160000 7.536920
76.180000 8.511708
76.200000 9.407503
76.220000 10.188640
76.240000 10.856590
76.260000 11.372320
76.280000 11.728970
76.300000 11.969340
76.320000 12.138090
76.340000 12.160640
76.360000 12.059630
76.380000 11.816980
76.400000 11.489270
76.420000 11.121600
76.440000 10.582650
76.460000 9.856507
76.480000 9.142224
76.500000 8.313070
76.520000 7.312502
76.540000 6.261983
76.560000 5.132626
76.580000 3.980065
76.600000 2.786838
76.620000 1.352137
76.640000 0.053507
76.660000 -1.217509
76.680000 -2.625197
76.700000 -4.018686
76.720000 -5.269103
76.740000 -6.461657
76.760000 -7.640909
76.780000 -8.694578
76.800000 -9.682432
76.820000 -10.423460
76.840000 -11.119300
76.860000 -11.774660
76.880000 -12.118420
76.900000 -12.417440
76.920000 -12.635600
76.940000 -12.613030
76.960000 -12.501160
76.980000 -12.271650
77.000000 -11.886280
77.020000 -11.392660
77.040000 -10.762410
77.060000 -9.988195
77.080000 -9.174599
77.100000 -8.139695
77.120000 -7.106904
77.140000 -6.061959
77.160000 -4.872429
77.180000 -3.579064
77.200000 -2.300865
77.220000 -1.085457
77.240000 0.279815
77.260000 1.585811
77.280000 2.859992
77.300000 4.096825
77.320000 5.258894
77.340000 6.497058
77.360000 7.582025
77.380000 8.509664
77.400000 9.466822
77.420000 10.241990
77.440000 10.866840
77.460000 11.401440
77.480000 11.750070
77.500000 12.001640
77.520000 12.145260
77.540000 12.149590
77.560000 12.070790
77.580000 11.803140
77.600000 11.492230
77.620000 11.101570
77.640000 10.527560
77.660000 9.870847
77.680000 9.082821
77.700000 8.288144
77.720000 7.307867
77.740000 6.199668
77.760000 5.136127
77.780000 3.952702
77.800000 2.724887
77.820000 1.389484
77.840000 0.011693
77.860000 -1.243891
77.880000 -2.645586
77.900000 -4.034034
77.920000 -5.264411
77.940000 -6.477677
77.960000 -7.614512
77.980000 -8.677984
78.000000 -9.636122
78.020000 -10.391390
78.040000 -11.108880
78.060000 -11.685140
78.080000 -12.087130
78.100000 -12.408060
78.120000 -12.552370
78.140000 -12.598280
78.160000 -12.465010
78.180000 -12.213750
78.200000 -11.900820
78.220000 -11.340210
78.240000 -10.737250
78.260000 -9.998964
78.280000 -9.113671
78.300000 -8.157549
78.320000 -7.120222
78.340000 -6.027119
78.360000 -4.853133
78.380000 -3.579358
78.400000 -2.324531
78.420000 -1.038308
78.440000 0.270713
78.460000 1.580308
78.480000 2.864319
78.500000 4.075302
78.520000 5.316602
78.540000 6.450147
78.560000 7.537368
78.580000 8.566307
78.600000 9.415737
78.620000 10.218980
78.640000 10.850130
78.660000 11.342770
78.680000 11.747700
78.700000 11.962290
78.720000 12.101740
78.740000 12.139210
78.760000 12.008750
78.780000 11.791690
78.800000 11.478380
78.820000 11.023520
78.840000 10.520220
78.860000 9.825868
78.880000 9.093716
78.900000 8.235408
78.920000 7.242583
78.940000 6.241552
78.960000 5.085448
78.980000 3.926446
79.000000 2.711738
79.020000 1.374528
79.040000 0.042430
79.060000 -1.316456
79.080000 -2.635251
79.100000 -3.962196
79.120000 -5.301408
79.140000 -6.486401
79.160000 -7.587528
79.180000 -8.665549
79.200000 -9.611995
79.220000 -10.420110
79.240000 -11.091280
79.260000 -11.628070
79.280000 -12.107510
79.300000 -12.394810
79.320000 -12.522270
79.340000 -12.550850
79.360000 -12.453330
79.380000 -12.190410
79.400000 -11.821840
79.420000 -11.342150
79.440000 -10.688350
79.460000 -9.944028
79.480000 -9.108055
79.500000 -8.111156
79.520000 -7.092579
79.540000 -6.016056
79.560000 -4.805185
79.580000 -3.603668
79.600000 -2.303638
79.620000 -1.012513
79.640000 0.243253
79.660000 1.568769
79.680000 2.869248
79.700000 4.064561
79.720000 5.289716
79.740000 6.412533
79.760000 7.503760
79.780000 8.515531
79.800000 9.350650
79.820000 10.157360
79.840000 10.811750
79.860000 11.300690
79.880000 11.707020
79.900000 11.941780
79.920000 12.068610
79.940000 12.138920
79.960000 11.996500
79.980000 11.792840
80.000000 11.489860
80.020000 11.069030
80.040000 10.534510
80.060000 9.864517
80.080000 9.152068
80.100000 8.286548
80.120000 7.299563
80.140000 6.279558
80.160000 5.136365
80.180000 3.994026
80.200000 2.752264
80.220000 1.412001
80.240000 0.109324
80.260000 -1.255178
80.280000 -2.592373
80.300000 -3.923225
80.320000 -5.277575
80.340000 -6.441773
80.360000 -7.557953
80.380000 -8.680533
80.400000 -9.575628
80.420000 -10.443610
80.440000 -11.083570
80.460000 -11.618830
80.480000 -12.156760
80.500000 -12.384470
80.520000 -12.546710
80.540000 -12.600720
80.560000 -12.458710
80.580000 -12.257480
80.600000 -11.869040
80.620000 -11.380650
80.640000 -10.739760
80.660000 -9.995953
80.680000 -9.132603
80.700000 -8.147817
80.720000 -7.087930
80.740000 -6.010413
80.760000 -4.847223
80.780000 -3.565383
80.800000 -2.286120
80.820000 -0.993567
80.840000 0.234346
80.860000 1.607867
80.880000 2.893502
80.900000 4.094458
80.920000 5.288917
80.940000 6.417575
80.960000 7.583929
80.980000 8.516077
81.000000 9.383684
81.020000 10.208370
81.040000 10.815470
81.060000 11.356340
81.080000 11.699130
81.100000 11.953500
81.120000 12.133970
81.140000 12.083590
81.160000 12.027110
81.180000 11.816840
81.200000 11.462960
81.220000 11.058910
81.240000 10.494980
81.260000 9.877722
81.280000 9.126862
81.300000 8.190891
81.320000 7.297644
81.340000 6.248484
81.360000 5.102883
81.380000 3.958850
81.400000 2.688534
81.420000 1.425795
81.440000 0.056322
81.460000 -1.301767
81.480000 -2.603786
81.500000 -3.987108
81.520000 -5.254959
81.540000 -6.437403
81.560000 -7.608939
81.580000 -8.629686
81.600000 -9.570167
81.620000 -10.368860
81.640000 -11.039300
81.660000 -11.665080
81.680000 -12.047700
81.700000 -12.329350
81.720000 -12.570090
81.740000 -12.555730
81.760000 -12.448070
81.780000 -12.195490
81.800000 -11.845350
81.820000 -11.400550
81.840000 -10.672230
81.860000 -9.968814
81.880000 -9.153034
81.900000 -8.145436
81.920000 -7.092691
81.940000 -5.992783
81.960000 -4.862389
81.980000 -3.602618
82.000000 -2.273755
82.020000 -1.036179
82.040000 0.225580
82.060000 1.547204
82.080000 2.873183
82.100000 4.067446
82.120000 5.216618
82.140000 6.405336
82.160000 7.533643
82.180000 8.494792
82.200000 9.349782
82.220000 10.159020
82.240000 10.799590
82.260000 11.323630
82.280000 11.665210
82.300000 11.909900
82.320000 12.071740
82.340000 12.110080
82.360000 11.991330
82.380000 11.786200
82.400000 11.479390
82.420000 11.051790
82.440000 10.525140
82.460000 9.867598
82.480000 9.073943
82.500000 8.263961
82.520000 7.334277
82.540000 6.250108
82.560000 5.131127
82.580000 3.993368
82.600000 2.788000
82.620000 1.455384
82.640000 0.064177
82.660000 -1.234089
82.680000 -2.520942
82.700000 -3.957925
82.720000 -5.264482
82.740000 -6.386375
82.760000 -7.546078
82.780000 -8.614129
82.800000 -9.575782
82.820000 -10.376160
82.840000 -11.015400
82.860000 -11.671950
82.880000 -12.106400
82.900000 -12.344160
82.920000 -12.572220
82.940000 -12.603170
82.960000 -12.450280
82.980000 -12.218040
83.000000 -11.869230
83.020000 -11.396020
83.040000 -10.727800
83.060000 -9.974808
83.080000 -9.185998
83.100000 -8.165881
83.120000 -7.089512
83.140000 -6.026797
83.160000 -4.870959
83.180000 -3.570984
83.200000 -2.261754
83.220000 -1.051723
83.240000 0.240970
83.260000 1.578403
83.280000 2.866615
83.300000 4.060374
83.320000 5.231630
83.340000 6.467819
83.360000 7.533503
83.380000 8.495310
83.400000 9.394942
83.420000 10.174010
83.440000 10.834170
83.460000 11.300310
83.480000 11.684740
83.500000 11.950910
83.520000 12.076410
83.540000 12.130000
83.560000 12.039600
83.580000 11.777530
83.600000 11.518470
83.620000 11.094310
83.640000 10.523920
83.660000 9.866800
83.680000 9.084936
83.700000 8.302848
83.720000 7.301425
83.740000 6.216528
83.760000 5.178865
83.780000 3.984140
83.800000 2.763018
83.820000 1.416258
83.840000 0.068070
83.860000 -1.223418
83.880000 -2.618405
83.900000 -3.944062
83.920000 -5.230257
83.940000 -6.453899
83.960000 -7.541317
83.980000 -8.636044
84.000000 -9.570769
84.020000 -10.361170
84.040000 -11.102810
84.060000 -11.614880
84.080000 -12.083710
84.100000 -12.456480
84.120000 -12.531440
84.140000 -12.578050
84.160000 -12.480740
84.180000 -12.223830
84.200000 -11.877540
84.220000 -11.346400
84.240000 -10.745330
84.260000 -10.042360
84.280000 -9.127338
84.300000 -8.157857
84.320000 -7.112492
84.340000 -6.019781
84.360000 -4.835096
84.380000 -3.566783
84.400000 -2.303204
84.420000 -1.025102
84.440000 0.240746
84.460000 1.555620
84.480000 2.856701
84.500000 4.042128
84.520000 5.270629
84.540000 6.427713
84.560000 7.520620
84.580000 8.548201
84.600000 9.374736
84.620000 10.192100
84.640000 10.832360
84.660000 11.294390
84.680000 11.717060
84.700000 11.954420
84.720000 12.086320
84.740000 12.148420
84.760000 12.030920
84.780000 11.831700
84.800000 11.503930
84.820000 11.082490
84.840000 10.543010
84.860000 9.875734
84.880000 9.119216
84.900000 8.237088
84.920000 7.304128
84.940000 6.264070
84.960000 5.121801
84.980000 3.989097
85.000000 2.769922
85.020000 1.401149
85.040000 0.088179
85.060000 -1.274390
85.080000 -2.609345
85.100000 -3.954705
85.120000 -5.292516
85.140000 -6.416959
85.160000 -7.552029
85.180000 -8.669484
85.200000 -9.577294
85.220000 -10.373780
85.240000 -11.070700
85.260000 -11.669800
85.280000 -12.125080
85.300000 -12.395080
85.320000 -12.549070
85.340000 -12.606560
85.360000 -12.473550
85.380000 -12.183170
85.400000 -11.855750
85.420000 -11.377370
85.440000 -10.720000
85.460000 -9.985646
85.480000 -9.137631
85.500000 -8.130789
85.520000 -7.086123
85.540000 -5.995695
85.560000 -4.791364
85.580000 -3.541759
85.600000 -2.248787
85.620000 -0.993259
85.640000 0.278807
85.660000 1.603133
85.680000 2.871278
85.700000 4.075246
85.720000 5.288427
85.740000 6.462946
85.760000 7.555740
85.780000 8.536158
85.800000 9.427710
85.820000 10.211930
85.840000 10.820680
85.860000 11.322250
85.880000 11.727580
85.900000 11.945050
85.920000 12.085170
85.940000 12.113920
85.960000 12.041690
85.980000 11.841550
86.000000 11.436050
86.020000 11.084450
86.040000 10.543130
86.060000 9.820029
86.080000 9.093100
86.100000 8.192543
86.120000 7.272704
86.140000 6.256368
86.160000 5.071053
86.180000 3.961916
86.200000 2.714567
86.220000 1.359013
86.240000 0.075702
86.260000 -1.298126
86.280000 -2.665695
86.300000 -3.973483
86.320000 -5.264818
86.340000 -6.401821
86.360000 -7.625617
86.380000 -8.657819
86.400000 -9.483066
86.420000 -10.397160
86.440000 -11.069840
86.460000 -11.650170
86.480000 -12.062280
86.500000 -12.301850
86.520000 -12.600730
86.540000 -12.557030
86.560000 -12.330300
86.580000 -12.191060
86.600000 -11.824320
86.620000 -11.319970
86.640000 -10.670730
86.660000 -9.917590
86.680000 -9.128458
86.700000 -8.116575
86.720000 -7.030418
86.740000 -5.983456
86.760000 -4.770737
86.780000 -3.533147
86.800000 -2.263364
86.820000 -0.982182
86.840000 0.252691
86.860000 1.596440
86.880000 2.817351
86.900000 4.045096
86.920000 5.284044
86.940000 6.392509
86.960000 7.483693
86.980000 8.502606
87.000000 9.406943
87.020000 10.135150
87.040000 10.751910
87.060000 11.309930
87.080000 11.674540
87.100000 11.895430
87.120000 12.015620
87.140000 12.079570
87.160000 12.062930
87.180000 11.788030
87.200000 11.444870
87.220000 11.097280
87.240000 10.529920
87.260000 9.846957
87.280000 9.083676
87.300000 8.209978
87.320000 7.323256
87.340000 6.252825
87.360000 5.127627
87.380000 3.984126
87.400000 2.725993
87.420000 1.452177
87.440000 0.083740
87.460000 -1.316204
87.480000 -2.637576
87.500000 -3.950112
87.520000 -5.229949
87.540000 -6.473462
87.560000 -7.572502
87.580000 -8.585394
87.600000 -9.527540
87.620000 -10.358600
87.640000 -11.113870
87.660000 -11.623910
87.680000 -12.031050
87.700000 -12.445200
87.720000 -12.582530
87.740000 -12.527680
87.760000 -12.447060
87.780000 -12.195690
87.800000 -11.854000
87.820000 -11.364450
87.840000 -10.668350
87.860000 -9.976250
87.880000 -9.151620
87.900000 -8.113606
87.920000 -7.032168
87.940000 -5.983666
87.960000 -4.771521
87.980000 -3.495856
88.000000 -2.271192
88.020000 -0.942230
88.040000 0.316420
88.060000 1.551055
88.080000 2.895182
88.100000 4.088647
88.120000 5.275390
88.140000 6.466012
88.160000 7.517553
88.180000 8.546450
88.200000 9.459526
88.220000 10.132370
88.240000 10.811960
88.260000 11.332830
88.280000 11.675780
88.300000 11.942030
88.320000 12.044350
88.340000 12.129370
88.360000 12.044300
88.380000 11.779510
88.400000 11.474190
88.420000 11.097490
88.440000 10.516540
88.460000 9.824090
88.480000 9.078270
88.500000 8.224233
88.520000 7.266165
88.540000 6.233234
88.560000 5.110052
88.580000 3.957463
88.600000 2.738400
88.620000 1.388868
88.640000 0.027447
88.660000 -1.281434
88.680000 -2.647070
88.700000 -4.015577
88.720000 -5.238407
88.740000 -6.474456
88.760000 -7.608295
88.780000 -8.575717
88.800000 -9.580431
88.820000 -10.388400
88.840000 -11.039440
88.860000 -11.636170
88.880000 -12.060410
88.900000 -12.406880
88.920000 -12.558110
88.940000 -12.528640
88.960000 -12.418510
88.980000 -12.190180
89.000000 -11.832620
89.020000 -11.313430
89.040000 -10.648590
89.060000 -9.972595
89.080000 -9.105059
89.100000 -8.072829
89.120000 -7.040668
89.140000 -5.928157
89.160000 -4.773257
89.180000 -3.491823
89.200000 -2.192801
89.220000 -0.952663
89.240000 0.317554
89.260000 1.584341
89.280000 2.898263
89.300000 4.143554
89.320000 5.251920
89.340000 6.464752
89.360000 7.585105
89.380000 8.541339
89.400000 9.447175
89.420000 10.172260
89.440000 10.773070
89.460000 11.355270
89.480000 11.680740
89.500000 11.888140
89.520000 12.047390
89.540000 12.118890
89.560000 12.026480
89.580000 11.767060
89.600000 11.458390
89.620000 11.025760
89.640000 10.511320
89.660000 9.811178
89.680000 8.982655
89.700000 8.193384
89.720000 7.233747
89.740000 6.172012
89.760000 5.061503
89.780000 3.924163
89.800000 2.723669
89.820000 1.364194
89.840000 -0.010755
89.860000 -1.299512
89.880000 -2.676043
89.900000 -4.008450
89.920000 -5.264622
89.940000 -6.485127
89.960000 -7.559031
89.980000 -8.605125
90.000000 -9.575082
90.020000 -10.354220
90.040000 -11.038830
90.060000 -11.635000
90.080000 -12.071170
90.100000 -12.353170
90.120000 -12.549760
90.140000 -12.525660
90.160000 -12.390350
90.180000 -12.185980
90.200000 -11.825760
90.220000 -11.292120
90.240000 -10.691770
90.260000 -9.945751
90.280000 -9.083998
90.300000 -8.081035
90.320000 -6.987792
90.340000 -5.947188
90.360000 -4.753723
90.380000 -3.451256
90.400000 -2.199943
90.420000 -0.948070
90.440000 0.313367
90.460000 1.629824
90.480000 2.904900
90.500000 4.105871
90.520000 5.304461
90.540000 6.464752
90.560000 7.590903
90.580000 8.526678
90.600000 9.430735
90.620000 10.183430
90.640000 10.761850
90.660000 11.321650
90.680000 11.676130
90.700000 11.850120
90.720000 12.070380
90.740000 12.100290
90.760000 11.999740
90.780000 11.823700
90.800000 11.407830
90.820000 11.061600
90.840000 10.536690
90.860000 9.780329
90.880000 9.038235
90.900000 8.189365
90.920000 7.271710
90.940000 6.213266
90.960000 5.073027
90.980000 3.936668
91.000000 2.719510
91.020000 1.394875
91.040000 -0.004467
91.060000 -1.365104
91.080000 -2.672066
91.100000 -4.010620
91.120000 -5.328631
91.140000 -6.473700
91.160000 -7.604766
91.180000 -8.632669
91.200000 -9.546711
91.220000 -10.434220
91.240000 -11.068050
91.260000 -11.639700
91.280000 -12.120120
91.300000 -12.364730
91.320000 -12.572310
91.340000 -12.560400
91.360000 -12.342100
91.380000 -12.206730
91.400000 -11.833950
91.420000 -11.282500
91.440000 -10.703810
91.460000 -9.946101
91.480000 -9.088885
91.500000 -8.115805
91.520000 -6.998126
91.540000 -5.913958
91.560000 -4.757000
91.580000 -3.444296
91.600000 -2.166811
91.620000 -0.944401
91.640000 0.332090
91.660000 1.644191
91.680000 2.886486
91.700000 4.113797
91.720000 5.315678
91.740000 6.443145
91.760000 7.584993
91.780000 8.576600
91.800000 9.398961
91.820000 10.190660
91.840000 10.809830
91.860000 11.300630
91.880000 11.667520
91.900000 11.889390
91.920000 12.034480
91.940000 12.163880
91.960000 12.019200
91.980000 11.762910
92.000000 11.512880
92.020000 11.059980
92.040000 10.526440
92.060000 9.818348
92.080000 9.039929
92.100000 8.197164
92.120000 7.279888
92.140000 6.184895
92.160000 5.088347
92.180000 3.984056
92.200000 2.688576
92.220000 1.400673
92.240000 0.000756
92.260000 -1.365734
92.280000 -2.647014
92.300000 -4.034986
92.320000 -5.340268
92.340000 -6.477999
92.360000 -7.585623
92.380000 -8.627712
92.400000 -9.568262
92.420000 -10.396180
92.440000 -11.090340
92.460000 -11.632340
92.480000 -12.122950
92.500000 -12.415410
92.520000 -12.559310
92.540000 -12.556690
92.560000 -12.425590
92.580000 -12.177380
92.600000 -11.852530
92.620000 -11.355370
92.640000 -10.648640
92.660000 -10.001440
92.680000 -9.127156
92.700000 -8.047426
92.720000 -7.028766
92.740000 -5.903651
92.760000 -4.706559
92.780000 -3.441453
92.800000 -2.132587
92.820000 -0.889578
92.840000 0.348418
92.860000 1.653573
92.880000 2.928762
92.900000 4.128640
92.920000 5.289716
92.940000 6.508120
92.960000 7.586394
92.980000 8.532615
93.000000 9.491552
93.020000 10.151680
93.040000 10.758520
93.060000 11.343050
93.080000 11.597450
93.100000 11.903270
93.120000 12.019270
93.140000 12.080700
93.160000 12.050080
93.180000 11.764230
93.200000 11.463490
93.220000 11.049720
93.240000 10.484380
93.260000 9.789557
93.280000 8.985834
93.300000 8.180206
93.320000 7.250355
93.340000 6.166900
93.360000 5.085504
93.380000 3.984770
93.400000 2.691881
93.420000 1.401849
93.440000 -0.020333
93.460000 -1.331958
93.480000 -2.669994
93.500000 -4.073481
93.520000 -5.266008
93.540000 -6.531072
93.560000 -7.541863
93.580000 -8.590449
93.600000 -9.588567
93.620000 -10.339620
93.640000 -11.084490
93.660000 -11.612030
93.680000 -12.092900
93.700000 -12.429010
93.720000 -12.557280
93.740000 -12.513450
93.760000 -12.411790
93.780000 -12.201990
93.800000 -11.791110
93.820000 -11.304600
93.840000 -10.647210
93.860000 -9.979793
93.880000 -9.091265
93.900000 -8.049667
93.920000 -7.006178
93.940000 -5.880896
93.960000 -4.732102
93.980000 -3.370568
94.000000 -2.139966
94.020000 -0.884593
94.040000 0.389672
94.060000 1.585601
94.080000 2.984313
94.100000 4.099625
94.120000 5.260673
94.140000 6.512980
94.160000 7.525031
94.180000 8.609732
94.200000 9.425610
94.220000 10.125360
94.240000 10.820670
94.260000 11.306390
94.280000 11.623190
94.300000 11.874200
94.320000 12.048410
94.340000 12.101960
94.360000 12.036450
94.380000 11.778300
94.400000 11.488540
94.420000 11.068080
94.440000 10.506140
94.460000 9.809386
94.480000 9.010368
94.500000 8.229428
94.520000 7.224533
94.540000 6.239046
94.560000 5.129979
94.580000 3.949593
94.600000 2.769404
94.620000 1.393671
94.640000 0.031143
94.660000 -1.340850
94.680000 -2.665415
94.700000 -4.018378
94.720000 -5.296759
94.740000 -6.501525
94.760000 -7.572586
94.780000 -8.593698
94.800000 -9.586943
94.820000 -10.379410
94.840000 -11.110520
94.860000 -11.635780
94.880000 -12.156180
94.900000 -12.469690
94.920000 -12.564900
94.940000 -12.605340
94.960000 -12.424790
94.980000 -12.235020
95.000000 -11.842210
95.020000 -11.331790
95.040000 -10.714230
95.060000 -9.976880
95.080000 -9.115379
95.100000 -8.024251
95.120000 -7.007481
95.140000 -5.897252
95.160000 -4.657450
95.180000 -3.417802
95.200000 -2.077287
95.220000 -0.897840
95.240000 0.362169
95.260000 1.698006
95.280000 2.947429
95.300000 4.125868
95.320000 5.333644
95.340000 6.499732
95.360000 7.625197
95.380000 8.614311
95.400000 9.418398
95.420000 10.218750
95.440000 10.813790
95.460000 11.302540
95.480000 11.688620
95.500000 11.841920
95.520000 12.088810
95.540000 12.138750
95.560000 11.996070
95.580000 11.817240
95.600000 11.448400
95.620000 11.084410
95.640000 10.478890
95.660000 9.742744
95.680000 9.037086
95.700000 8.151345
95.720000 7.228902
95.740000 6.204584
95.760000 5.062931
95.780000 3.959858
95.800000 2.724789
95.820000 1.333345
95.840000 0.034602
95.860000 -1.371994
95.880000 -2.714286
95.900000 -3.993816
95.920000 -5.341290
95.940000 -6.468547
95.960000 -7.576409
95.980000 -8.614199
96.000000 -9.540984
96.020000 -10.425370
96.040000 -11.061290
96.060000 -11.667970
96.080000 -12.158910
96.100000 -12.429950
96.120000 -12.590890
96.140000 -12.542610
96.160000 -12.433460
96.180000 -12.173500
96.200000 -11.790230
96.220000 -11.321600
96.240000 -10.664520
96.260000 -9.944743
96.280000 -9.054269
96.300000 -8.034431
96.320000 -6.964966
96.340000 -5.845999
96.360000 -4.597235
96.380000 -3.382723
96.400000 -2.073310
96.420000 -0.803975
96.440000 0.370291
96.460000 1.745043
96.480000 2.929504
96.500000 4.167892
96.520000 5.364844
96.540000 6.486499
96.560000 7.655262
96.580000 8.553732
96.600000 9.477982
96.620000 10.174730
96.640000 10.785270
96.660000 11.294290
96.680000 11.596100
96.700000 11.856720
96.720000 12.007090
96.740000 12.053610
96.760000 11.981360
96.780000 11.743730
96.800000 11.410660
96.820000 11.040280
96.840000 10.409700
96.860000 9.716628
96.880000 8.998409
96.900000 8.080727
96.920000 7.241645
96.940000 6.141764
96.960000 5.051574
96.980000 3.969464
97.000000 2.664392
97.020000 1.373478
97.040000 -0.039924
97.060000 -1.361883
97.080000 -2.697188
97.100000 -4.049563
97.120000 -5.310875
97.140000 -6.488992
97.160000 -7.573076
97.180000 -8.604284
97.200000 -9.554203
97.220000 -10.398020
97.240000 -11.060430
97.260000 -11.676850
97.280000 -12.132190
97.300000 -12.425720
97.320000 -12.580960
97.340000 -12.522170
97.360000 -12.408410
97.380000 -12.121340
97.400000 -11.808210
97.420000 -11.301600
97.440000 -10.616760
97.460000 -9.934058
97.480000 -9.034244
97.500000 -8.041335
97.520000 -6.903043
97.540000 -5.835105
97.560000 -4.617036
97.580000 -3.323629
97.600000 -2.075551
97.620000 -0.803471
97.640000 0.387627
97.660000 1.691719
97.680000 2.976892
97.700000 4.116570
97.720000 5.319921
97.740000 6.535273
97.760000 7.596686
97.780000 8.587592
97.800000 9.456053
97.820000 10.176120
97.840000 10.804590
97.860000 11.231780
97.880000 11.617280
97.900000 11.887430
97.920000 11.955920
97.940000 12.085350
97.960000 11.985200
97.980000 11.747020
98.000000 11.446240
98.020000 10.979120
98.040000 10.442390
98.060000 9.748793
98.080000 8.929625
98.100000 8.131951
98.120000 7.209297
98.140000 6.128027
98.160000 5.057316
98.180000 3.941331
98.200000 2.700913
98.220000 1.303181
98.240000 -0.073784
98.260000 -1.349616
98.280000 -2.733667
98.300000 -4.088521
98.320000 -5.338881
98.340000 -6.479610
98.360000 -7.555488
98.380000 -8.629827
98.400000 -9.559916
98.420000 -10.351470
98.440000 -11.053460
98.460000 -11.672900
98.480000 -12.125510
98.500000 -12.405710
98.520000 -12.568010
98.540000 -12.528780
98.560000 -12.370870
98.580000 -12.133340
98.600000 -11.797070
98.620000 -11.270820
98.640000 -10.624120
98.660000 -9.936649
98.680000 -9.047323
98.700000 -8.009141
98.720000 -6.916277
98.740000 -5.825106
98.760000 -4.633280
98.780000 -3.313126
98.800000 -2.027982
98.820000 -0.861333
98.840000 0.378259
98.860000 1.699589
98.880000 2.925919
98.900000 4.129159
98.920000 5.298678
98.940000 6.507084
98.960000 7.624231
98.980000 8.551268
99.000000 9.451026
99.020000 10.167840
99.040000 10.769680
99.060000 11.253670
99.080000 11.590840
99.100000 11.831040
99.120000 11.986220
99.140000 12.078000
99.160000 11.979420
99.180000 11.750800
99.200000 11.433690
99.220000 11.009460
99.240000 10.448120
99.260000 9.722635
99.280000 8.945042
99.300000 8.170348
99.320000 7.208751
99.340000 6.134287
99.360000 5.109674
99.380000 3.965921
99.400000 2.689388
99.420000 1.354210
99.440000 -0.046603
99.460000 -1.341256
99.480000 -2.730320
99.500000 -4.100704
99.520000 -5.294113
99.540000 -6.478629
99.560000 -7.584503
99.580000 -8.645874
99.600000 -9.561330
99.620000 -10.390500
99.640000 -11.131460
99.660000 -11.687630
99.680000 -12.166170
99.700000 -12.454020
99.720000 -12.574900
99.740000 -12.560120
99.760000 -12.386050
99.780000 -12.171500
99.800000 -11.806880
99.820000 -11.239480
99.840000 -10.682130
99.860000 -9.952402
99.880000 -8.993298
99.900000 -8.009659
99.920000 -6.926205
99.940000 -5.798906
99.960000 -4.604601
99.980000 -3.259830
100.000000 -2.059853
100.020000 -0.856684
100.040000 0.448570
100.060000 1.713424
100.080000 2.922601
100.100000 4.127100
100.120000 5.363947
100.140000 6.536127
100.160000 7.618853
100.180000 8.607869
100.200000 9.461837
100.220000 10.199490
100.240000 10.782790
100.260000 11.268860
100.280000 11.614520
100.300000 11.840480
100.320000 12.023050
100.340000 12.101720
100.360000 11.985050
100.380000 11.756260
100.400000 11.459770
100.420000 11.019680
100.440000 10.437660
100.460000 9.720115
100.480000 8.983103
100.500000 8.144918
100.520000 7.173056
100.540000 6.171676
100.560000 5.110486
100.580000 3.953598
100.600000 2.664533
100.620000 1.338022
100.640000 -0.020557
100.660000 -1.421818
100.680000 -2.735362
100.700000 -4.087877
100.720000 -5.339554
100.740000 -6.498780
100.760000 -7.634369
100.780000 -8.616845
100.800000 -9.563501
100.820000 -10.440810
100.840000 -11.098310
100.860000 -11.693370
100.880000 -12.167060
100.900000 -12.425790
100.920000 -12.602470
100.940000 -12.534110
100.960000 -12.371710
100.980000 -12.157920
101.000000 -11.761360
101.020000 -11.273890
101.040000 -10.646280
101.060000 -9.873816
101.080000 -9.041035
101.100000 -8.018398
101.120000 -6.882977
101.140000 -5.808904
101.160000 -4.569242
101.180000 -3.298227
101.200000 -2.064866
101.220000 -0.788530
101.240000 0.390316
101.260000 1.684745
101.280000 2.972663
101.300000 4.105129
101.320000 5.349888
101.340000 6.531856
101.360000 7.607021
101.380000 8.623441
101.400000 9.456333
101.420000 10.172380
101.440000 10.814940
101.460000 11.235220
101.480000 11.597340
101.500000 11.865750
101.520000 11.986730
101.540000 12.087380
101.560000 11.981980
101.580000 11.748710
101.600000 11.436800
101.620000 10.987060
101.640000 10.413740
101.660000 9.701798
101.680000 8.953178
101.700000 8.104070
101.720000 7.167665
101.740000 6.155306
101.760000 5.050608
101.780000 3.947941
101.800000 2.676407
101.820000 1.329452
101.840000 -0.034252
101.860000 -1.393909
101.880000 -2.717437
101.900000 -4.072431
101.920000 -5.320803
101.940000 -6.478167
101.960000 -7.560151
101.980000 -8.613247
102.000000 -9.547047
102.020000 -10.409020
102.040000 -11.085330
102.060000 -11.646170
102.080000 -12.161920
102.100000 -12.413690
102.120000 -12.544220
102.140000 -12.516960
102.160000 -12.354900
102.180000 -12.148870
102.200000 -11.746020
102.220000 -11.250090
102.240000 -10.625700
102.260000 -9.897495
102.280000 -9.032339
102.300000 -7.985336
102.320000 -6.903604
102.340000 -5.788025
102.360000 -4.578541
102.380000 -3.308967
102.400000 -2.054056
102.420000 -0.828607
102.440000 0.408072
102.460000 1.671484
102.480000 2.924491
102.500000 4.139535
102.520000 5.308676
102.540000 6.501371
102.560000 7.603366
102.580000 8.564907
102.600000 9.471275
102.620000 10.167130
102.640000 10.734310
102.660000 11.261400
102.680000 11.583890
102.700000 11.842410
102.720000 11.986800
102.740000 12.026900
102.760000 12.003810
102.780000 11.772450
102.800000 11.397770
102.820000 11.001620
102.840000 10.433570
102.860000 9.731681
102.880000 8.957015
102.900000 8.113382
102.920000 7.227291
102.940000 6.193605
102.960000 5.087199
102.980000 3.973133
103.000000 2.735698
103.020000 1.352473
103.040000 -0.038649
103.060000 -1.344323
103.080000 -2.720994
103.100000 -4.081043
103.120000 -5.289141
103.140000 -6.505348
103.160000 -7.564590
103.180000 -8.607281
103.200000 -9.593342
103.220000 -10.362180
103.240000 -11.109490
103.260000 -11.712880
103.280000 -12.140710
103.300000 -12.440930
103.320000 -12.582750
103.340000 -12.537520
103.360000 -12.375190
103.380000 -12.121240
103.400000 -11.772290
103.420000 -11.249200
103.440000 -10.593870
103.460000 -9.895227
103.480000 -9.010900
103.500000 -7.974497
103.520000 -6.856104
103.540000 -5.779945
103.560000 -4.592936
103.580000 -3.245028
103.600000 -2.018487
103.620000 -0.828747
103.640000 0.417384
103.660000 1.693903
103.680000 2.930624
103.700000 4.110240
103.720000 5.292250
103.740000 6.490378
103.760000 7.617271
103.780000 8.544084
103.800000 9.447623
103.820000 10.172480
103.840000 10.727290
103.860000 11.224090
103.880000 11.587170
103.900000 11.808320
103.920000 11.953400
103.940000 12.058210
103.960000 11.956450
103.980000 11.756480
104.000000 11.399150
104.020000 10.958630
104.040000 10.449760
104.060000 9.679071
104.080000 8.921671
104.100000 8.113746
104.120000 7.177117
104.140000 6.166774
104.160000 5.087955
104.180000 3.947255
104.200000 2.724705
104.220000 1.354896
104.240000 -0.023050
104.260000 -1.339366
104.280000 -2.725377
104.300000 -4.064799
104.320000 -5.279339
104.340000 -6.462385
104.360000 -7.557981
104.380000 -8.589175
104.400000 -9.548041
104.420000 -10.351440
104.440000 -11.078410
104.460000 -11.720830
104.480000 -12.122500
104.500000 -12.420780
104.520000 -12.574310
104.540000 -12.522750
104.560000 -12.373390
104.580000 -12.094990
104.600000 -11.753810
104.620000 -11.266620
104.640000 -10.613430
104.660000 -9.892202
104.680000 -9.002106
104.700000 -7.994508
104.720000 -6.895552
104.740000 -5.767314
104.760000 -4.584268
104.780000 -3.277138
104.800000 -2.021414
104.820000 -0.860577
104.840000 0.443753
104.860000 1.703467
104.880000 2.880422
104.900000 4.151326
104.920000 5.309096
104.940000 6.544557
104.960000 7.634327
104.980000 8.551954
105.000000 9.498469
105.020000 10.186120
105.040000 10.753210
105.060000 11.259460
105.080000 11.582590
105.100000 11.817480
105.120000 12.011150
105.140000 12.044790
105.160000 11.970440
105.180000 11.754120
105.200000 11.390450
105.220000 10.986060
105.240000 10.385120
105.260000 9.660600
105.280000 8.942214
105.300000 8.099057
105.320000 7.148592
105.340000 6.155068
105.360000 5.086443
105.380000 3.920088
105.400000 2.674587
105.420000 1.320545
105.440000 -0.043382
105.460000 -1.403557
105.480000 -2.772933
105.500000 -4.057097
105.520000 -5.319109
105.540000 -6.504158
105.560000 -7.588746
105.580000 -8.622923
105.600000 -9.558180
105.620000 -10.434410
105.640000 -11.162340
105.660000 -11.695050
105.680000 -12.193950
105.700000 -12.487310
105.720000 -12.582070
105.740000 -12.541950
105.760000 -12.363870
105.780000 -12.129600
105.800000 -11.781020
105.820000 -11.239860
105.840000 -10.590440
105.860000 -9.883394
105.880000 -8.998087
105.900000 -7.939923
105.920000 -6.858975
105.940000 -5.740582
105.960000 -4.536895
105.980000 -3.247367
106.000000 -2.010379
106.020000 -0.784216
106.040000 0.420927
106.060000 1.703453
106.080000 2.973307
106.100000 4.144870
106.120000 5.372966
106.140000 6.543997
106.160000 7.657979
106.180000 8.638046
106.200000 9.470771
106.220000 10.225090
106.240000 10.783040
106.260000 11.263620
106.280000 11.622330
106.300000 11.846220
106.320000 11.999180
106.340000 12.082030
106.360000 11.987430
106.380000 11.741070
106.400000 11.414330
106.420000 10.988110
106.440000 10.399910
106.460000 9.685064
106.480000 8.915915
106.500000 8.108761
106.520000 7.180576
106.540000 6.124176
106.560000 5.043774
106.580000 3.957099
106.600000 2.659099
106.620000 1.273690
106.640000 -0.071599
106.660000 -1.429114
106.680000 -2.757613
106.700000 -4.142028
106.720000 -5.388565
106.740000 -6.499746
106.760000 -7.636162
106.780000 -8.673517
106.800000 -9.617596
106.820000 -10.467520
106.840000 -11.129950
106.860000 -11.743290
106.880000 -12.203190
106.900000 -12.463780
106.920000 -12.585260
106.940000 -12.510020
106.960000 -12.365000
106.980000 -12.120640
107.000000 -11.709750
107.020000 -11.209330
107.040000 -10.578200
107.060000 -9.864489
107.080000 -8.982431
107.100000 -7.889385
107.120000 -6.862616
107.140000 -5.746155
107.160000 -4.507488
107.180000 -3.244146
107.200000 -1.999135
107.220000 -0.819981
107.240000 0.427061
107.260000 1.708761
107.280000 2.932151
107.300000 4.130503
107.320000 5.343152
107.340000 6.544487
107.360000 7.638626
107.380000 8.626228
107.400000 9.463153
107.420000 10.179890
107.440000 10.791640
107.460000 11.248090
107.480000 11.600280
107.500000 11.822590
107.520000 12.015280
107.540000 12.078040
107.560000 11.963990
107.580000 11.719390
107.600000 11.449800
107.620000 10.977490
107.640000 10.353560
107.660000 9.698017
107.680000 8.931417
107.700000 8.104364
107.720000 7.164430
107.740000 6.132074
107.760000 5.074428
107.780000 3.963303
107.800000 2.642967
107.820000 1.274012
107.840000 -0.042304
107.860000 -1.432642
107.880000 -2.756577
107.900000 -4.131707
107.920000 -5.363723
107.940000 -6.492283
107.960000 -7.624063
107.980000 -8.661628
108.000000 -9.612541
108.020000 -10.418450
108.040000 -11.105790
108.060000 -11.753710
108.080000 -12.190590
108.100000 -12.405750
108.120000 -12.577780
108.140000 -12.503270
108.160000 -12.354970
108.180000 -12.110200
108.200000 -11.683960
108.220000 -11.277990
108.240000 -10.599080
108.260000 -9.852951
108.280000 -9.009836
108.300000 -7.929966
108.320000 -6.879756
108.340000 -5.771781
108.360000 -4.517388
108.380000 -3.291855
108.400000 -2.033625
108.420000 -0.830414
108.440000 0.394027
108.460000 1.704126
108.480000 2.942443
108.500000 4.126134
108.520000 5.353011
108.540000 6.581974
108.560000 7.675063
108.580000 8.626396
108.600000 9.515721
108.620000 10.242310
108.640000 10.784120
108.660000 11.286600
108.680000 11.607430
108.700000 11.874830
108.720000 12.032170
108.740000 12.062250
108.760000 12.020870
108.780000 11.763710
108.800000 11.427260
108.820000 10.976120
108.840000 10.401660
108.860000 9.707372
108.880000 8.898705
108.900000 8.096858
108.920000 7.180884
108.940000 6.142269
108.960000 5.093570
108.980000 3.925298
109.000000 2.650249
109.020000 1.297874
109.040000 -0.098976
109.060000 -1.426005
109.080000 -2.810350
109.100000 -4.139885
109.120000 -5.324178
109.140000 -6.550467
109.160000 -7.637814
109.180000 -8.649515
109.200000 -9.627468
109.220000 -10.430480
109.240000 -11.187280
109.260000 -11.787670
109.280000 -12.171800
109.300000 -12.488230
109.320000 -12.598350
109.340000 -12.529020
109.360000 -12.346240
109.380000 -12.100080
109.400000 -11.762270
109.420000 -11.227340
109.440000 -10.620690
109.460000 -9.885718
109.480000 -8.975780
109.500000 -7.974819
109.520000 -6.862168
109.540000 -5.737879
109.560000 -4.560728
109.580000 -3.230437
109.600000 -2.026693
109.620000 -0.856012
109.640000 0.451217
109.660000 1.717513
109.680000 2.927922
109.700000 4.138849
109.720000 5.373428
109.740000 6.605178
109.760000 7.684291
109.780000 8.623273
109.800000 9.534094
109.820000 10.269820
109.840000 10.811990
109.860000 11.261130
109.880000 11.650320
109.900000 11.887020
109.920000 12.040020
109.940000 12.082480
109.960000 11.989890
109.980000 11.803620
110.000000 11.432870
110.020000 10.961060
110.040000 10.416450
110.060000 9.660404
110.080000 8.899867
110.100000 8.097194
110.120000 7.124017
110.140000 6.106378
110.160000 5.034574
110.180000 3.909138
110.200000 2.624357
110.220000 1.224314
110.240000 -0.138773
110.260000 -1.460229
110.280000 -2.843930
110.300000 -4.187441
110.320000 -5.416488
110.340000 -6.540566
110.360000 -7.646958
110.380000 -8.730189
110.400000 -9.607990
110.420000 -10.430160
110.440000 -11.190550
110.460000 -11.751960
110.480000 -12.177640
110.500000 -12.438080
110.520000 -12.564320
110.540000 -12.516250
110.560000 -12.277070
110.580000 -12.051230
110.600000 -11.737540
110.620000 -11.181660
110.640000 -10.547240
110.660000 -9.843778
110.680000 -8.960418
110.700000 -7.936702
110.720000 -6.800777
110.740000 -5.715544
110.760000 -4.542510
110.780000 -3.224793
110.800000 -2.020084
110.820000 -0.814548
110.840000 0.430281
110.860000 1.699995
110.880000 2.935428
110.900000 4.150738
110.920000 5.402681
110.940000 6.572732
110.960000 7.666101
110.980000 8.685042
111.000000 9.532497
111.020000 10.243200
111.040000 10.793230
111.060000 11.265570
111.080000 11.670240
111.100000 11.864230
111.120000 11.982230
111.140000 12.123320
111.160000 11.995400
111.180000 11.745740
111.200000 11.414050
111.220000 10.942690
111.240000 10.410580
111.260000 9.655825
111.280000 8.859356
111.300000 8.075937
111.320000 7.145274
111.340000 6.119569
111.360000 5.029337
111.380000 3.918786
111.400000 2.622494
111.420000 1.233669
111.440000 -0.105515
111.460000 -1.487788
111.480000 -2.827952
111.500000 -4.141482
111.520000 -5.404823
111.540000 -6.522502
111.560000 -7.656382
111.580000 -8.701748
111.600000 -9.563851
111.620000 -10.498440
111.640000 -11.198250
111.660000 -11.705060
111.680000 -12.213850
111.700000 -12.450830
111.720000 -12.592770
111.740000 -12.507600
111.760000 -12.285460
111.780000 -12.118510
111.800000 -11.745600
111.820000 -11.166520
111.840000 -10.563030
111.860000 -9.864321
111.880000 -8.984784
111.900000 -7.886514
111.920000 -6.820340
111.940000 -5.748424
111.960000 -4.477072
111.980000 -3.221909
112.000000 -2.001249
112.020000 -0.775744
112.040000 0.434300
112.060000 1.721924
112.080000 2.966879
112.100000 4.153580
112.120000 5.425170
112.140000 6.584635
112.160000 7.669658
112.180000 8.687492
112.200000 9.556149
112.220000 10.190750
112.240000 10.776350
112.260000 11.312270
112.280000 11.607570
112.300000 11.815540
112.320000 11.984960
112.340000 12.059770
112.360000 12.029120
112.380000 11.702700
112.400000 11.366950
112.420000 10.986750
112.440000 10.335950
112.460000 9.657015
112.480000 8.871595
112.500000 8.044178
112.520000 7.173252
112.540000 6.106980
112.560000 5.036409
112.580000 3.924751
112.600000 2.612216
112.620000 1.282736
112.640000 -0.090980
112.660000 -1.503709
112.680000 -2.791753
112.700000 -4.115267
112.720000 -5.395469
112.740000 -6.528901
112.760000 -7.649955
112.780000 -8.637220
112.800000 -9.580039
112.820000 -10.468130
112.840000 -11.151010
112.860000 -11.735490
112.880000 -12.144360
112.900000 -12.463740
112.920000 -12.558430
112.940000 -12.455560
112.960000 -12.307590
112.980000 -12.068730
113.000000 -11.695460
113.020000 -11.205750
113.040000 -10.551750
113.060000 -9.844661
113.080000 -8.981087
113.100000 -7.909143
113.120000 -6.840420
113.140000 -5.729309
113.160000 -4.496187
113.180000 -3.267559
113.200000 -2.013292
113.220000 -0.798290
113.240000 0.401182
113.260000 1.674551
113.280000 2.920822
113.300000 4.146607
113.320000 5.375640
113.340000 6.546840
113.360000 7.644578
113.380000 8.668714
113.400000 9.507361
113.420000 10.183700
113.440000 10.774260
113.460000 11.263650
113.480000 11.614740
113.500000 11.831770
113.520000 11.977020
113.540000 12.084180
113.560000 12.000280
113.580000 11.732360
113.600000 11.360590
113.620000 10.962650
113.640000 10.391070
113.660000 9.643824
113.680000 8.870852
113.700000 8.056095
113.720000 7.150413
113.740000 6.140714
113.760000 5.023274
113.780000 3.882335
113.800000 2.641917
113.820000 1.260681
113.840000 -0.128621
113.860000 -1.501091
113.880000 -2.820628
113.900000 -4.127436
113.920000 -5.382936
113.940000 -6.558841
113.960000 -7.638724
113.980000 -8.618442
114.000000 -9.592558
114.020000 -10.465220
114.040000 -11.156160
114.060000 -11.720510
114.080000 -12.117770
114.100000 -12.462720
114.120000 -12.550990
114.140000 -12.419700
114.160000 -12.263030
114.180000 -12.025000
114.200000 -11.712670
114.220000 -11.179410
114.240000 -10.508450
114.260000 -9.840880
114.280000 -9.015983
114.300000 -7.889903
114.320000 -6.847422
114.340000 -5.717672
114.360000 -4.520665
114.380000 -3.263513
114.400000 -1.963174
114.420000 -0.832150
114.440000 0.414640
114.460000 1.720818
114.480000 2.918638
114.500000 4.161142
114.520000 5.363317
114.540000 6.582898
114.560000 7.670988
114.580000 8.632655
114.600000 9.549063
114.620000 10.214630
114.640000 10.752750
114.660000 11.238460
114.680000 11.599700
114.700000 11.821140
114.720000 11.953570
114.740000 12.036150
114.760000 11.993170
114.780000 11.723870
114.800000 11.336410
114.820000 10.953080
114.840000 10.372840
114.860000 9.608004
114.880000 8.854889
114.900000 8.056473
114.920000 7.151505
114.940000 6.102317
114.960000 5.031466
114.980000 3.916363
115.000000 2.678816
115.020000 1.235209
115.040000 -0.141938
115.060000 -1.418989
115.080000 -2.831411
115.100000 -4.147545
115.120000 -5.363877
115.140000 -6.530750
115.160000 -7.597190
115.180000 -8.663365
115.200000 -9.588777
115.220000 -10.443610
115.240000 -11.165930
115.260000 -11.733340
115.280000 -12.161800
115.300000 -12.468610
115.320000 -12.558670
115.340000 -12.460310
115.360000 -12.278710
115.380000 -12.074710
115.400000 -11.742340
115.420000 -11.150220
115.440000 -10.560920
115.460000 -9.910910
115.480000 -8.967798
115.500000 -7.920710
115.520000 -6.833335
115.540000 -5.744433
115.560000 -4.522583
115.580000 -3.188510
115.600000 -2.011640
115.620000 -0.833746
115.640000 0.434398
115.660000 1.716673
115.680000 2.927208
115.700000 4.174642
115.720000 5.394475
115.740000 6.598484
115.760000 7.716947
115.780000 8.670716
115.800000 9.562983
115.820000 10.230060
115.840000 10.799800
115.860000 11.275260
115.880000 11.622010
115.900000 11.850600
115.920000 12.007160
115.940000 12.102540
115.960000 12.003670
115.980000 11.752520
116.000000 11.421900
116.020000 10.986450
116.040000 10.353680
116.060000 9.657253
116.080000 8.893020
116.100000 8.074901
116.120000 7.151435
116.140000 6.122860
116.160000 5.058716
116.180000 3.937845
116.200000 2.628362
116.220000 1.237870
116.240000 -0.111593
116.260000 -1.477817
116.280000 -2.859151
116.300000 -4.193896
116.320000 -5.383846
116.340000 -6.559485
116.360000 -7.651285
116.380000 -8.696945
116.400000 -9.639693
116.420000 -10.458780
116.440000 -11.204040
116.460000 -11.781730
116.480000 -12.184650
116.500000 -12.482330
116.520000 -12.568220
116.540000 -12.481070
116.560000 -12.312350
116.580000 -12.056210
116.600000 -11.694240
116.620000 -11.189070
116.640000 -10.548650
116.660000 -9.876560
116.680000 -8.959802
116.700000 -7.895616
116.720000 -6.828181
116.740000 -5.708822
116.760000 -4.481035
116.780000 -3.184772
116.800000 -1.990901
116.820000 -0.785995
116.840000 0.484306
116.860000 1.727581
116.880000 2.982899
116.900000 4.176476
116.920000 5.413659
116.940000 6.657620
116.960000 7.729368
116.980000 8.691805
117.000000 9.598117
117.020000 10.263260
117.040000 10.813720
117.060000 11.317970
117.080000 11.606300
117.100000 11.868530
117.120000 12.028540
117.140000 12.074290
117.160000 12.013040
117.180000 11.729490
117.200000 11.395760
117.220000 10.966080
117.240000 10.348610
117.260000 9.624220
117.280000 8.879927
117.300000 8.040607
117.320000 7.095128
117.340000 6.131766
117.360000 5.022559
117.380000 3.897781
117.400000 2.597148
117.420000 1.219105
117.440000 -0.135244
117.460000 -1.517895
117.480000 -2.868338
117.500000 -4.173745
117.520000 -5.395679
117.540000 -6.574819
117.560000 -7.683465
117.580000 -8.669862
117.600000 -9.615103
117.620000 -10.494630
117.640000 -11.152110
117.660000 -11.752910
117.680000 -12.199210
117.700000 -12.409980
117.720000 -12.587710
117.740000 -12.442120
117.760000 -12.260610
117.780000 -12.071600
117.800000 -11.630200
117.820000 -11.164110
117.840000 -10.537390
117.860000 -9.785300
117.880000 -8.925326
117.900000 -7.876515
117.920000 -6.777307
117.940000 -5.657920
117.960000 -4.445789
117.980000 -3.177364
118.000000 -1.968789
118.020000 -0.750454
118.040000 0.475736
118.060000 1.718857
118.080000 2.968840
118.100000 4.187819
118.120000 5.396169
118.140000 6.598302
118.160000 7.732869
118.180000 8.662692
118.200000 9.529543
118.220000 10.251430
118.240000 10.768550
118.260000 11.273490
118.280000 11.579500
118.300000 11.811550
118.320000 12.007410
118.340000 12.016110
118.360000 11.954580
118.380000 11.719350
118.400000 11.367530
118.420000 10.909570
118.440000 10.328840
118.460000 9.634330
118.480000 8.823773
118.500000 8.060030
118.520000 7.135723
118.540000 6.091436
118.560000 5.064583
118.580000 3.887320
118.600000 2.617313
118.620000 1.271478
118.640000 -0.158616
118.660000 -1.483643
118.680000 -2.785942
118.700000 -4.197383
118.720000 -5.365600
118.740000 -6.510921
118.760000 -7.663244
118.780000 -8.608849
118.800000 -9.638601
118.820000 -10.460610
118.840000 -11.158820
118.860000 -11.781140
118.880000 -12.128130
118.900000 -12.456780
118.920000 -12.573750
118.940000 -12.407020
118.960000 -12.277720
118.980000 -12.049240
119.000000 -11.666480
119.020000 -11.138280
119.040000 -10.523080
119.060000 -9.833262
119.080000 -8.924583
119.100000 -7.851673
119.120000 -6.810047
119.140000 -5.647572
119.160000 -4.425988
119.180000 -3.193258
119.200000 -1.926233
119.220000 -0.811061
119.240000 0.502623
119.260000 1.750631
119.280000 2.876137
119.300000 4.228204
119.320000 5.437801
119.340000 6.552903
119.360000 7.720854
119.380000 8.712390
119.400000 9.531993
119.420000 10.244950
119.440000 10.759540
119.460000 11.252610
119.480000 11.614390
119.500000 11.765150
119.520000 11.979120
119.540000 12.067580
119.560000 11.941590
119.580000 11.721130
119.600000 11.369460
119.620000 10.941210
119.640000 10.300320
119.660000 9.623169
119.680000 8.854426
119.700000 8.007223
119.720000 7.149489
119.740000 6.104880
119.760000 5.041506
119.780000 3.926292
119.800000 2.588858
119.820000 1.255696
119.840000 -0.122011
119.860000 -1.528215
119.880000 -2.821832
119.900000 -4.160288
119.920000 -5.423266
119.940000 -6.512616
119.960000 -7.630966
119.980000 -8.646547
120.000000 -9.575264
120.020000 -10.493980
120.040000 -11.147950
120.060000 -11.754050
120.080000 -12.192620
120.100000 -12.453280
120.120000 -12.567800
120.140000 -12.409270
120.160000 -12.286650
120.180000 -12.045160
120.200000 -11.663660
120.220000 -11.155400
120.240000 -10.519020
120.260000 -9.862179
120.280000 -8.945910
120.300000 -7.834841
120.320000 -6.835519
120.340000 -5.675858
120.360000 -4.416424
120.380000 -3.182083
120.400000 -1.934803
120.420000 -0.775983
120.440000 0.456762
120.460000 1.794671
120.480000 2.935414
120.500000 4.175636
120.520000 5.457322
120.540000 6.648280
120.560000 7.759853
120.580000 8.722361
120.600000 9.580809
120.620000 10.288400
120.640000 10.828830
120.660000 11.263750
120.680000 11.603890
120.700000 11.830910
120.720000 12.032950
120.740000 12.059530
120.760000 11.973800
120.780000 11.730680
120.800000 11.375760
120.820000 10.993340
120.840000 10.254120
120.860000 9.574760
120.880000 8.899937
120.900000 7.985602
120.920000 7.104384
120.940000 6.099236
120.960000 5.031073
120.980000 3.925536
121.000000 2.548389
121.020000 1.162153
121.040000 -0.111607
121.060000 -1.532136
121.080000 -2.930568
121.100000 -4.182175
121.120000 -5.433880
121.140000 -6.538746
121.160000 -7.666927
121.180000 -8.712964
121.200000 -9.598439
121.220000 -10.481550
121.240000 -11.210520
121.260000 -11.765810
121.280000 -12.217460
121.300000 -12.497320
121.320000 -12.537350
121.340000 -12.457060
121.360000 -12.281200
121.380000 -12.063980
121.400000 -11.658500
121.420000 -11.158250
121.440000 -10.549020
121.460000 -9.859126
121.480000 -8.958345
121.500000 -7.795030
121.520000 -6.793187
121.540000 -5.699300
121.560000 -4.401650
121.580000 -3.094100
121.600000 -1.931064
121.620000 -0.794873
121.640000 0.499696
121.660000 1.790246
121.680000 3.016507
121.700000 4.169446
121.720000 5.462545
121.740000 6.725635
121.760000 7.792033
121.780000 8.750494
121.800000 9.569900
121.820000 10.309630
121.840000 10.844740
121.860000 11.297220
121.880000 11.579310
121.900000 11.833450
121.920000 12.078700
121.940000 12.086000
121.960000 11.960140
121.980000 11.688220
122.000000 11.392580
122.020000 11.011130
122.040000 10.218420
122.060000 9.519866
122.080000 8.899419
122.100000 8.017585
122.120000 7.021064
122.140000 6.071734
122.160000 5.020109
122.180000 3.908522
122.200000 2.567769
122.220000 1.090078
122.240000 -0.136883
122.260000 -1.552483
122.280000 -2.939559
122.300000 -4.192454
122.320000 -5.445223
122.340000 -6.600837
122.360000 -7.652209
122.380000 -8.645468
122.400000 -9.673301
122.420000 -10.528330
122.440000 -11.139170
122.460000 -11.736470
122.480000 -12.258210
122.500000 -12.486210
122.520000 -12.481330
122.540000 -12.372980
122.560000 -12.311340
122.580000 -12.077570
122.600000 -11.548250
122.620000 -11.101270
122.640000 -10.599880
122.660000 -9.792568
122.680000 -8.850464
122.700000 -7.806513
122.720000 -6.787418
122.740000 -5.641732
122.760000 -4.326858
122.780000 -3.118662
122.800000 -1.963090
122.820000 -0.720991
122.840000 0.485623
122.860000 1.764060
122.880000 3.008371
122.900000 4.183758
122.920000 5.437801
122.940000 6.671330
122.960000 7.805098
122.980000 8.685406
123.000000 9.492686
123.020000 10.301520
123.040000 10.822660
123.060000 11.187710
123.080000 11.524870
123.100000 11.801760
123.120000 12.081220
123.140000 11.977810
123.160000 11.847140
123.180000 11.771190
123.200000 11.361340
123.220000 10.824590
123.240000 10.205770
123.260000 9.562171
123.280000 8.850814
123.300000 7.930302
123.320000 7.015995
123.340000 6.114696
123.360000 5.005937
123.380000 3.849497
123.400000 2.569044
123.420000 1.164688
123.440000 -0.145747
123.460000 -1.563378
123.480000 -2.858101
123.500000 -4.181601
123.520000 -5.462909
123.540000 -6.483643
123.560000 -7.624847
123.580000 -8.653576
123.600000 -9.625032
123.620000 -10.463480
123.640000 -11.057000
123.660000 -11.798350
123.680000 -12.195730
123.700000 -12.332970
123.720000 -12.488830
123.740000 -12.397630
123.760000 -12.245680
123.780000 -11.956680
123.800000 -11.568000
123.820000 -11.163790
123.840000 -10.527550
123.860000 -9.732087
123.880000 -8.916125
123.900000 -7.857205
123.920000 -6.766833
123.940000 -5.630740
123.960000 -4.375912
123.980000 -3.203662
124.000000 -1.901993
124.020000 -0.771529
124.040000 0.450628
124.060000 1.776789
124.080000 2.933509
124.100000 4.189541
124.120000 5.406462
124.140000 6.653587
124.160000 7.766869
124.180000 8.638271
124.200000 9.537399
124.220000 10.258670
124.240000 10.770490
124.260000 11.177920
124.280000 11.514040
124.300000 11.853790
124.320000 11.973890
124.340000 11.938110
124.360000 11.923190
124.380000 11.718580
124.400000 11.327630
124.420000 10.855440
124.440000 10.211870
124.460000 9.622343
124.480000 8.806913
124.500000 7.915893
124.520000 7.134547
124.540000 6.054075
124.560000 5.041940
124.580000 3.890709
124.600000 2.536976
124.620000 1.232632
124.640000 -0.168208
124.660000 -1.503709
124.680000 -2.805266
124.700000 -4.212353
124.720000 -5.381676
124.740000 -6.450259
124.760000 -7.615829
124.780000 -8.672103
124.800000 -9.605301
124.820000 -10.387450
124.840000 -11.138820
124.860000 -11.814770
124.880000 -12.143060
124.900000 -12.392470
124.920000 -12.514560
124.940000 -12.423370
124.960000 -12.242060
124.980000 -11.946680
125.000000 -11.659310
125.020000 -11.166120
125.040000 -10.499260
125.060000 -9.800410
125.080000 -8.929737
125.100000 -7.846506
125.120000 -6.749426
125.140000 -5.637265
125.160000 -4.405277
125.180000 -3.131237
125.200000 -1.905242
125.220000 -0.779063
125.240000 0.498436
125.260000 1.777391
125.280000 2.957301
125.300000 4.207787
125.320000 5.450740
125.340000 6.705988
125.360000 7.741803
125.380000 8.696455
125.400000 9.606127
125.420000 10.240620
125.440000 10.761880
125.460000 11.212170
125.480000 11.596400
125.500000 11.799290
125.520000 11.940600
125.540000 12.025610
125.560000 11.945290
125.580000 11.697600
125.600000 11.280290
125.620000 10.913130
125.640000 10.277570
125.660000 9.529123
125.680000 8.808327
125.700000 8.019896
125.720000 7.062514
125.740000 6.056680
125.760000 5.062455
125.780000 3.877644
125.800000 2.589867
125.820000 1.156916
125.840000 -0.172143
125.860000 -1.465480
125.880000 -2.912252
125.900000 -4.220517
125.920000 -5.369171
125.940000 -6.510851
125.960000 -7.656354
125.980000 -8.675828
126.000000 -9.599518
126.020000 -10.433870
126.040000 -11.191210
126.060000 -11.797390
126.080000 -12.143710
126.100000 -12.464200
126.120000 -12.477660
126.140000 -12.436940
126.160000 -12.248210
126.180000 -11.960000
126.200000 -11.684200
126.220000 -11.115520
126.240000 -10.555950
126.260000 -9.835306
126.280000 -8.890289
126.300000 -7.876725
126.320000 -6.779086
126.340000 -5.642698
126.360000 -4.414981
126.380000 -3.102516
126.400000 -1.956998
126.420000 -0.795517
126.440000 0.532744
126.460000 1.747088
126.480000 2.989453
126.500000 4.196963
126.520000 5.453681
126.540000 6.734527
126.560000 7.746396
126.580000 8.737148
126.600000 9.585052
126.620000 10.295530
126.640000 10.823120
126.660000 11.226510
126.680000 11.616790
126.700000 11.843890
126.720000 12.002270
126.740000 12.059010
126.760000 11.939270
126.780000 11.719920
126.800000 11.391440
126.820000 10.858060
126.840000 10.292120
126.860000 9.573779
126.880000 8.801480
126.900000 8.023215
126.920000 7.016541
126.940000 6.081676
126.960000 5.047121
126.980000 3.817990
127.000000 2.570374
127.020000 1.133853
127.040000 -0.198792
127.060000 -1.537654
127.080000 -2.963826
127.100000 -4.237839
127.120000 -5.411587
127.140000 -6.575491
127.160000 -7.678116
127.180000 -8.700487
127.200000 -9.620243
127.220000 -10.480230
127.240000 -11.222720
127.260000 -11.771120
127.280000 -12.188450
127.300000 -12.407780
127.320000 -12.504740
127.340000 -12.439580
127.360000 -12.159800
127.380000 -11.967000
127.400000 -11.638840
127.420000 -11.072280
127.440000 -10.526610
127.460000 -9.736064
127.480000 -8.864957
127.500000 -7.871474
127.520000 -6.720215
127.540000 -5.582022
127.560000 -4.375884
127.580000 -3.142551
127.600000 -1.919525
127.620000 -0.718499
127.640000 0.515660
127.660000 1.751177
127.680000 2.967929
127.700000 4.227028
127.720000 5.484923
127.740000 6.675713
127.760000 7.735474
127.780000 8.743366
127.800000 9.602276
127.820000 10.246120
127.840000 10.778390
127.860000 11.207750
127.880000 11.580870
127.900000 11.807710
127.920000 11.943710
127.940000 12.003250
127.960000 11.930100
127.980000 11.711760
128.000000 11.294700
128.020000 10.858950
128.040000 10.233630
128.060000 9.570601
128.080000 8.777338
128.100000 7.933019
128.120000 7.092971
128.140000 6.076775
128.160000 5.036549
128.180000 3.850464
128.200000 2.566355
128.220000 1.186897
128.240000 -0.178417
128.260000 -1.537220
128.280000 -2.914829
128.300000 -4.187679
128.320000 -5.429091
128.340000 -6.528551
128.360000 -7.668327
128.380000 -8.701664
128.400000 -9.610636
128.420000 -10.473760
128.440000 -11.212890
128.460000 -11.799590
128.480000 -12.170940
128.500000 -12.446050
128.520000 -12.524670
128.540000 -12.419350
128.560000 -12.185370
128.580000 -11.948750
128.600000 -11.658500
128.620000 -11.106180
128.640000 -10.481670
128.660000 -9.783830
128.680000 -8.919094
128.700000 -7.834799
128.720000 -6.698048
128.740000 -5.592552
128.760000 -4.362917
128.780000 -3.088891
128.800000 -1.876045
128.820000 -0.692102
128.840000 0.507986
128.860000 1.796282
128.880000 3.013510
128.900000 4.242348
128.920000 5.498072
128.940000 6.723688
128.960000 7.789639
128.980000 8.751334
129.000000 9.616126
129.020000 10.269900
129.040000 10.759930
129.060000 11.210520
129.080000 11.583180
129.100000 11.789740
129.120000 11.941300
129.140000 11.993810
129.160000 11.930640
129.180000 11.688300
129.200000 11.292370
129.220000 10.817330
129.240000 10.242010
129.260000 9.535088
129.280000 8.742722
129.300000 7.938172
129.320000 7.048230
129.340000 6.043685
129.360000 4.991066
129.380000 3.825790
129.400000 2.497444
129.420000 1.135435
129.440000 -0.216604
129.460000 -1.589522
129.480000 -2.947316
129.500000 -4.257738
129.520000 -5.415620
129.540000 -6.540216
129.560000 -7.674979
129.580000 -8.686596
129.600000 -9.587685
129.620000 -10.450610
129.640000 -11.197020
129.660000 -11.781980
129.680000 -12.125290
129.700000 -12.380170
129.720000 -12.498270
129.740000 -12.353200
129.760000 -12.156420
129.780000 -11.912660
129.800000 -11.609670
129.820000 -11.097640
129.840000 -10.453960
129.860000 -9.763007
129.880000 -8.857115
129.900000 -7.825641
129.920000 -6.676693
129.940000 -5.554071
129.960000 -4.348955
129.980000 -3.046516
130.000000 -1.885987
130.020000 -0.697270
130.040000 0.559112
130.060000 1.788188
130.080000 3.022655
130.100000 4.275928
130.120000 5.520449
130.140000 6.733589
130.160000 7.774403
130.180000 8.768390
130.200000 9.615439
130.220000 10.197500
130.240000 10.764220
130.260000 11.184030
130.280000 11.540240
130.300000 11.776400
130.320000 11.850610
130.340000 12.005770
130.360000 11.902610
130.380000 11.589940
130.400000 11.289720
130.420000 10.789010
130.440000 10.205160
130.460000 9.492826
130.480000 8.711662
130.500000 7.939475
130.520000 7.055778
130.540000 6.023044
130.560000 5.033342
130.580000 3.806171
130.600000 2.503060
130.620000 1.169449
130.640000 -0.216338
130.660000 -1.554192
130.680000 -2.943045
130.700000 -4.207773
130.720000 -5.336487
130.740000 -6.566921
130.760000 -7.616053
130.780000 -8.652442
130.800000 -9.553320
130.820000 -10.455380
130.840000 -11.208840
130.860000 -11.715170
130.880000 -12.111920
130.900000 -12.398870
130.920000 -12.467510
130.940000 -12.329940
130.960000 -12.146720
130.980000 -11.934540
131.000000 -11.609040
131.020000 -11.092720
131.040000 -10.474110
131.060000 -9.811599
131.080000 -8.864551
131.100000 -7.823849
131.120000 -6.724346
131.140000 -5.595927
131.160000 -4.367902
131.180000 -3.101438
131.200000 -1.938542
131.220000 -0.715306
131.240000 0.498478
131.260000 1.757100
131.280000 2.997939
131.300000 4.233274
131.320000 5.525728
131.340000 6.685991
131.360000 7.786404
131.380000 8.761108
131.400000 9.587349
131.420000 10.217160
131.440000 10.756900
131.460000 11.216990
131.480000 11.542850
131.500000 11.779950
131.520000 11.939100
131.540000 12.047630
131.560000 11.925110
131.580000 11.674870
131.600000 11.319210
131.620000 10.861250
131.640000 10.255730
131.660000 9.514097
131.680000 8.791999
131.700000 7.985840
131.720000 7.090815
131.740000 6.079239
131.760000 5.019185
131.780000 3.880319
131.800000 2.547072
131.820000 1.171424
131.840000 -0.220469
131.860000 -1.538368
131.880000 -2.923385
131.900000 -4.205099
131.920000 -5.411475
131.940000 -6.571612
131.960000 -7.641007
131.980000 -8.698947
132.000000 -9.648529
132.020000 -10.492830
132.040000 -11.230560
132.060000 -11.779770
132.080000 -12.174680
132.100000 -12.450110
132.120000 -12.510590
132.140000 -12.388230
132.160000 -12.208040
132.180000 -11.994350
132.200000 -11.626220
132.220000 -11.125210
132.240000 -10.482210
132.260000 -9.835236
132.280000 -8.863361
132.300000 -7.799385
132.320000 -6.685403
132.340000 -5.569867
132.360000 -4.317098
132.380000 -3.050941
132.400000 -1.864366
132.420000 -0.673786
132.440000 0.568299
132.460000 1.859773
132.480000 3.058181
132.500000 4.292102
132.520000 5.594261
132.540000 6.764298
132.560000 7.833721
132.580000 8.820594
132.600000 9.617876
132.620000 10.272590
132.640000 10.786110
132.660000 11.231780
132.680000 11.578700
132.700000 11.785210
132.720000 11.936010
132.740000 12.026020
132.760000 11.888130
132.780000 11.650510
132.800000 11.265440
132.820000 10.815990
132.840000 10.202040
132.860000 9.427598
132.880000 8.775952
132.900000 7.906511
132.920000 6.987092
132.940000 6.060321
132.960000 4.959040
132.980000 3.795192
133.000000 2.520340
133.020000 1.074548
133.040000 -0.237861
133.060000 -1.563840
133.080000 -2.973055
133.100000 -4.221763
133.120000 -5.416236
133.140000 -6.563154
133.160000 -7.648807
133.180000 -8.689089
133.200000 -9.619654
133.220000 -10.474710
133.240000 -11.174430
133.260000 -11.748600
133.280000 -12.157190
133.300000 -12.365110
133.320000 -12.463000
133.340000 -12.355230
133.360000 -12.145330
133.380000 -11.952840
133.400000 -11.592060
133.420000 -11.092850
133.440000 -10.489600
133.460000 -9.756103
133.480000 -8.876692
133.500000 -7.791697
133.520000 -6.675587
133.540000 -5.570315
133.560000 -4.339405
133.580000 -3.078458
133.600000 -1.864716
133.620000 -0.668717
133.640000 0.564014
133.660000 1.802261
133.680000 3.063600
133.700000 4.344390
133.720000 5.515534
133.740000 6.745968
133.760000 7.827714
133.780000 8.780979
133.800000 9.620677
133.820000 10.217360
133.840000 10.716220
133.860000 11.256690
133.880000 11.521820
133.900000 11.728100
133.920000 11.889670
133.940000 11.980620
133.960000 11.877290
133.980000 11.597940
134.000000 11.197950
134.020000 10.821490
134.040000 10.169010
134.060000 9.481175
134.080000 8.688599
134.100000 7.952792
134.120000 7.016261
134.140000 6.029149
134.160000 4.946871
134.180000 3.836278
134.200000 2.494252
134.220000 1.176549
134.240000 -0.243771
134.260000 -1.539838
134.280000 -2.897409
134.300000 -4.196165
134.320000 -5.393705
134.340000 -6.510347
134.360000 -7.625491
134.380000 -8.632711
134.400000 -9.634400
134.420000 -10.437420
134.440000 -11.146430
134.460000 -11.742020
134.480000 -12.149400
134.500000 -12.371390
134.520000 -12.423250
134.540000 -12.395190
134.560000 -12.167150
134.580000 -11.924870
134.600000 -11.621870
134.620000 -11.116450
134.640000 -10.504470
134.660000 -9.753849
134.680000 -8.884632
134.700000 -7.809523
134.720000 -6.686481
134.740000 -5.573970
134.760000 -4.349572
134.780000 -3.104112
134.800000 -1.856118
134.820000 -0.721411
134.840000 0.532730
134.860000 1.813506
134.880000 3.062886
134.900000 4.259628
134.920000 5.530924
134.940000 6.762464
134.960000 7.786040
134.980000 8.735580
135.000000 9.573611
135.020000 10.263190
135.040000 10.734910
135.060000 11.168220
135.080000 11.555070
135.100000 11.785050
135.120000 11.876730
135.140000 11.974330
135.160000 11.932950
135.180000 11.630120
135.200000 11.265820
135.220000 10.808620
135.240000 10.232580
135.260000 9.534724
135.280000 8.688052
135.300000 7.954052
135.320000 7.107857
135.340000 5.998720
135.360000 4.966266
135.380000 3.868612
135.400000 2.490457
135.420000 1.103451
135.440000 -0.213733
135.460000 -1.577941
135.480000 -2.908863
135.500000 -4.258592
135.520000 -5.396869
135.540000 -6.505642
135.560000 -7.703532
135.580000 -8.673951
135.600000 -9.570181
135.620000 -10.435080
135.640000 -11.189260
135.660000 -11.744780
135.680000 -12.057430
135.700000 -12.389090
135.720000 -12.472980
135.740000 -12.304390
135.760000 -12.144760
135.780000 -11.938950
135.800000 -11.597640
135.820000 -11.073320
135.840000 -10.475150
135.860000 -9.756061
135.880000 -8.856163
135.900000 -7.773759
135.920000 -6.687630
135.940000 -5.582750
135.960000 -4.330611
135.980000 -3.061402
136.000000 -1.903702
136.020000 -0.681628
136.040000 0.572346
136.060000 1.787166
136.080000 3.035706
136.100000 4.261588
136.120000 5.504919
136.140000 6.742901
136.160000 7.736762
136.180000 8.727248
136.200000 9.585808
136.220000 10.183990
136.240000 10.743200
136.260000 11.149310
136.280000 11.535500
136.300000 11.778110
136.320000 11.871240
136.340000 11.996560
136.360000 11.913530
136.380000 11.609420
136.400000 11.284670
136.420000 10.862470
136.440000 10.212280
136.460000 9.525384
136.480000 8.756109
136.500000 7.982675
136.520000 7.081726
136.540000 6.038560
136.560000 5.004425
136.580000 3.830089
136.600000 2.537158
136.620000 1.111685
136.640000 -0.215106
136.660000 -1.532766
136.680000 -2.959723
136.700000 -4.214691
136.720000 -5.415844
136.740000 -6.584397
136.760000 -7.662124
136.780000 -8.691693
136.800000 -9.658458
136.820000 -10.473590
136.840000 -11.182330
136.860000 -11.760670
136.880000 -12.139710
136.900000 -12.423650
136.920000 -12.470140
136.940000 -12.338700
136.960000 -12.209390
136.980000 -11.977490
137.000000 -11.595420
137.020000 -11.124400
137.040000 -10.472910
137.060000 -9.785874
137.080000 -8.864005
137.100000 -7.782189
137.120000 -6.683653
137.140000 -5.588912
137.160000 -4.315978
137.180000 -3.056221
137.200000 -1.873020
137.220000 -0.649784
137.240000 0.561059
137.260000 1.839944
137.280000 3.067885
137.300000 4.297745
137.320000 5.540306
137.340000 6.724304
137.360000 7.812576
137.380000 8.743352
137.400000 9.599770
137.420000 10.235300
137.440000 10.746180
137.460000 11.205440
137.480000 11.542180
137.500000 11.777710
137.520000 11.916510
137.540000 11.997220
137.560000 11.883470
137.580000 11.659370
137.600000 11.298980
137.620000 10.810840
137.640000 10.209830
137.660000 9.536755
137.680000 8.765869
137.700000 7.939264
137.720000 7.052599
137.740000 6.019487
137.760000 5.008920
137.780000 3.801060
137.800000 2.488846
137.820000 1.123868
137.840000 -0.228885
137.860000 -1.601425
137.880000 -2.968826
137.900000 -4.241438
137.920000 -5.437493
137.940000 -6.582730
137.960000 -7.685453
137.980000 -8.686932
138.000000 -9.660138
138.020000 -10.463670
138.040000 -11.197180
138.060000 -11.779690
138.080000 -12.139520
138.100000 -12.425030
138.120000 -12.484760
138.140000 -12.370500
138.160000 -12.226230
138.180000 -11.947280
138.200000 -11.637250
138.220000 -11.130770
138.240000 -10.472210
138.260000 -9.800648
138.280000 -8.878764
138.300000 -7.762094
138.320000 -6.721056
138.340000 -5.542210
138.360000 -4.305769
138.380000 -3.092881
138.400000 -1.794559
138.420000 -0.703081
138.440000 0.580369
138.460000 1.864408
138.480000 3.065519
138.500000 4.298557
138.520000 5.551873
138.540000 6.744133
138.560000 7.832321
138.580000 8.741965
138.600000 9.634750
138.620000 10.255870
138.640000 10.762960
138.660000 11.247010
138.680000 11.560830
138.700000 11.770390
138.720000 11.955290
138.740000 11.987510
138.760000 11.939100
138.780000 11.662100
138.800000 11.242210
138.820000 10.888740
138.840000 10.187800
138.860000 9.499338
138.880000 8.767508
138.900000 7.905964
138.920000 7.033107
138.940000 6.008522
138.960000 4.949714
138.980000 3.830775
139.000000 2.410413
139.020000 1.099614
139.040000 -0.225482
139.060000 -1.645816
139.080000 -2.988094
139.100000 -4.249377
139.120000 -5.432396
139.140000 -6.594619
139.160000 -7.724131
139.180000 -8.673755
139.200000 -9.619780
139.220000 -10.502170
139.240000 -11.197360
139.260000 -11.730140
139.280000 -12.123650
139.300000 -12.415930
139.320000 -12.452900
139.340000 -12.315090
139.360000 -12.166260
139.380000 -11.935390
139.400000 -11.567050
139.420000 -11.065420
139.440000 -10.443670
139.460000 -9.755053
139.480000 -8.825580
139.500000 -7.736930
139.520000 -6.683037
139.540000 -5.511585
139.560000 -4.291962
139.580000 -3.048085
139.600000 -1.836065
139.620000 -0.658732
139.640000 0.569237
139.660000 1.804152
139.680000 3.059666
139.700000 4.297647
139.720000 5.492274
139.740000 6.712892
139.760000 7.803782
139.780000 8.754176
139.800000 9.570279
139.820000 10.187500
139.840000 10.755330
139.860000 11.239540
139.880000 11.462830
139.900000 11.726920
139.920000 11.931620
139.940000 11.991190
139.960000 11.857900
139.980000 11.595560
140.000000 11.284210
140.020000 10.831180
140.040000 10.194810
140.060000 9.454737
140.080000 8.731631
140.100000 7.948451
140.120000 7.011065
140.140000 6.009545
140.160000 4.943468
140.180000 3.808888
140.200000 2.501015
140.220000 1.097556
140.240000 -0.267254
140.260000 -1.583991
140.280000 -2.925765
140.300000 -4.243790
140.320000 -5.448724
140.340000 -6.579286
140.360000 -7.621640
140.380000 -8.652330
140.400000 -9.613087
140.420000 -10.470740
140.440000 -11.145480
140.460000 -11.686010
140.480000 -12.150760
140.500000 -12.367130
140.520000 -12.412720
140.540000 -12.306140
140.560000 -12.131350
140.580000 -11.941730
140.600000 -11.534350
140.620000 -11.031320
140.640000 -10.460860
140.660000 -9.719905
140.680000 -8.795794
140.700000 -7.742307
140.720000 -6.641867
140.740000 -5.522340
140.760000 -4.260832
140.780000 -3.011830
140.800000 -1.869687
140.820000 -0.627547
140.840000 0.569923
140.860000 1.813030
140.880000 3.062676
140.900000 4.249363
140.920000 5.515380
140.940000 6.703103
140.960000 7.772778
140.980000 8.720106
141.000000 9.557732
141.020000 10.194370
141.040000 10.713680
141.060000 11.163960
141.080000 11.475180
141.100000 11.740310
141.120000 11.899180
141.140000 11.948860
141.160000 11.854750
141.180000 11.641110
141.200000 11.266460
141.220000 10.777060
141.240000 10.192320
141.260000 9.471009
141.280000 8.757817
141.300000 7.926493
141.320000 7.013040
141.340000 6.050392
141.360000 4.978337
141.380000 3.814629
141.400000 2.487278
141.420000 1.133727
141.440000 -0.233520
141.460000 -1.584761
141.480000 -2.935050
141.500000 -4.246689
141.520000 -5.392766
141.540000 -6.562552
141.560000 -7.636764
141.580000 -8.626592
141.600000 -9.618436
141.620000 -10.443810
141.640000 -11.121100
141.660000 -11.735260
141.680000 -12.138190
141.700000 -12.375560
141.720000 -12.472940
141.740000 -12.286950
141.760000 -12.164580
141.780000 -11.989280
141.800000 -11.539840
141.820000 -11.093200
141.840000 -10.465640
141.860000 -9.775918
141.880000 -8.838645
141.900000 -7.741831
141.920000 -6.685025
141.940000 -5.541370
141.960000 -4.329743
141.980000 -3.005809
142.000000 -1.851385
142.020000 -0.685339
142.040000 0.563061
142.060000 1.822034
142.080000 3.045704
142.100000 4.286710
142.120000 5.529747
142.140000 6.711169
142.160000 7.833217
142.180000 8.741573
142.200000 9.580599
142.220000 10.219180
142.240000 10.751780
142.260000 11.229410
142.280000 11.496330
142.300000 11.760760
142.320000 11.934760
142.340000 12.006780
142.360000 11.900760
142.380000 11.633480
142.400000 11.310360
142.420000 10.814770
142.440000 10.217700
142.460000 9.484004
142.480000 8.753196
142.500000 7.950901
142.520000 7.020392
142.540000 6.044049
142.560000 4.996667
142.580000 3.785278
142.600000 2.462940
142.620000 1.113954
142.640000 -0.275096
142.660000 -1.606214
142.680000 -2.992001
142.700000 -4.270299
142.720000 -5.421459
142.740000 -6.594311
142.760000 -7.670442
142.780000 -8.685336
142.800000 -9.653655
142.820000 -10.481230
142.840000 -11.168310
142.860000 -11.775780
142.880000 -12.179600
142.900000 -12.382140
142.920000 -12.451400
142.940000 -12.334630
142.960000 -12.191500
142.980000 -11.920930
143.000000 -11.577070
143.020000 -11.081610
143.040000 -10.461860
143.060000 -9.756131
143.080000 -8.793582
143.100000 -7.750401
143.120000 -6.657788
143.140000 -5.503407
143.160000 -4.289245
143.180000 -3.018005
143.200000 -1.822734
143.220000 -0.685171
143.240000 0.568411
143.260000 1.836359
143.280000 3.046628
143.300000 4.278687
143.320000 5.538121
143.340000 6.735857
143.360000 7.818499
143.380000 8.742666
143.400000 9.578597
143.420000 10.248180
143.440000 10.739200
143.460000 11.207510
143.480000 11.529520
143.500000 11.751120
143.520000 11.935100
143.540000 11.995130
143.560000 11.883190
143.580000 11.640610
143.600000 11.282550
143.620000 10.791530
143.640000 10.192240
143.660000 9.466150
143.680000 8.703372
143.700000 7.936478
143.720000 6.991433
143.740000 5.996563
143.760000 4.941522
143.780000 3.781049
143.800000 2.460938
143.820000 1.074100
143.840000 -0.257060
143.860000 -1.622360
143.880000 -2.964149
143.900000 -4.269416
143.920000 -5.429427
143.940000 -6.546504
143.960000 -7.662754
143.980000 -8.655075
144.000000 -9.588609
144.020000 -10.428120
144.040000 -11.152770
144.060000 -11.707720
144.080000 -12.101670
144.100000 -12.350740
144.120000 -12.415780
144.140000 -12.318590
144.160000 -12.107060
144.180000 -11.933090
144.200000 -11.563140
144.220000 -11.030540
144.240000 -10.470530
144.260000 -9.743094
144.280000 -8.793596
144.300000 -7.750135
144.320000 -6.687055
144.340000 -5.523670
144.360000 -4.286991
144.380000 -3.043380
144.400000 -1.874589
144.420000 -0.699286
144.440000 0.570091
144.460000 1.812078
144.480000 2.998345
144.500000 4.235528
144.520000 5.510451
144.540000 6.686299
144.560000 7.742055
144.580000 8.700529
144.600000 9.519012
144.620000 10.204720
144.640000 10.697380
144.660000 11.160010
144.680000 11.504230
144.700000 11.724040
144.720000 11.923530
144.740000 11.963400
144.760000 11.878410
144.780000 11.615710
144.800000 11.263540
144.820000 10.827150
144.840000 10.193040
144.860000 9.451222
144.880000 8.754905
144.900000 7.944796
144.920000 7.022968
144.940000 6.008466
144.960000 4.953817
144.980000 3.848517
145.000000 2.494168
145.020000 1.086353
145.040000 -0.223522
145.060000 -1.574398
145.080000 -2.937654
145.100000 -4.231075
145.120000 -5.434048
145.140000 -6.534755
145.160000 -7.626177
145.180000 -8.657623
145.200000 -9.597487
145.220000 -10.441850
145.240000 -11.139960
145.260000 -11.718420
145.280000 -12.103360
145.300000 -12.384790
145.320000 -12.431380
145.340000 -12.279570
145.360000 -12.195700
145.380000 -11.932060
145.400000 -11.577580
145.420000 -11.076300
145.440000 -10.448190
145.460000 -9.790734
145.480000 -8.804042
145.500000 -7.743806
145.520000 -6.692321
145.540000 -5.529383
145.560000 -4.286696
145.580000 -3.024923
145.600000 -1.852995
145.620000 -0.687355
145.640000 0.594527
145.660000 1.817007
145.680000 3.021226
145.700000 4.266322
145.720000 5.506726
145.740000 6.722316
145.760000 7.747852
145.780000 8.718314
145.800000 9.591130
145.820000 10.173080
145.840000 10.718360
145.860000 11.178820
145.880000 11.474640
145.900000 11.767950
145.920000 11.868960
145.940000 11.964990
145.960000 11.904770
145.980000 11.587550
146.000000 11.293110
146.020000 10.786930
146.040000 10.169290
146.060000 9.468180
146.080000 8.708091
146.100000 7.925471
146.120000 6.961479
146.140000 6.020943
146.160000 4.975634
146.180000 3.768348
146.200000 2.454636
146.220000 1.079113
146.240000 -0.254847
146.260000 -1.591090
146.280000 -2.993626
146.300000 -4.252010
146.320000 -5.380023
146.340000 -6.553547
146.360000 -7.622018
146.380000 -8.643452
146.400000 -9.568906
146.420000 -10.386720
146.440000 -11.129020
146.460000 -11.669590
146.480000 -12.084910
146.500000 -12.324890
146.520000 -12.381590
146.540000 -12.308760
146.560000 -12.104450
146.580000 -11.919180
146.600000 -11.544000
146.620000 -11.029080
146.640000 -10.463710
146.660000 -9.735070
146.680000 -8.822821
146.700000 -7.771112
146.720000 -6.669593
146.740000 -5.544339
146.760000 -4.311398
146.780000 -3.041993
146.800000 -1.902567
146.820000 -0.669865
146.840000 0.557404
146.860000 1.765292
146.880000 3.013006
146.900000 4.225320
146.920000 5.514400
146.940000 6.660505
146.960000 7.742461
146.980000 8.729909
147.000000 9.551584
147.020000 10.175550
147.040000 10.693120
147.060000 11.200490
147.080000 11.504140
147.100000 11.727950
147.120000 11.897750
147.140000 12.008540
147.160000 11.906630
147.180000 11.614990
147.200000 11.287150
147.220000 10.793720
147.240000 10.204140
147.260000 9.455395
147.280000 8.718118
147.300000 7.931493
147.320000 6.977709
147.340000 6.028603
147.360000 4.963059
147.380000 3.758980
147.400000 2.463752
147.420000 1.084239
147.440000 -0.277547
147.460000 -1.617865
147.480000 -3.010836
147.500000 -4.234856
147.520000 -5.394461
147.540000 -6.603833
147.560000 -7.630462
147.580000 -8.597409
147.600000 -9.562297
147.620000 -10.478210
147.640000 -11.089970
147.660000 -11.647060
147.680000 -12.160080
147.700000 -12.313970
147.720000 -12.346400
147.740000 -12.339960
147.760000 -12.038160
147.780000 -12.020410
147.800000 -11.483380
147.820000 -10.927930
147.840000 -10.634930
147.860000 -9.611210
147.880000 -8.754162
147.900000 -7.804706
147.920000 -6.610401
147.940000 -5.559967
147.960000 -4.228190
147.980000 -2.987520
148.000000 -1.963244
148.020000 -0.623332
148.040000 0.555276
148.060000 1.711449
148.080000 3.085908
148.100000 4.182357
148.120000 5.476703
148.140000 6.658069
148.160000 7.744758
148.180000 8.749569
148.200000 9.398191
148.220000 10.218940
148.240000 10.741240
148.260000 11.132930
148.280000 11.506020
148.300000 11.652470
148.320000 12.003450
148.340000 12.065380
148.360000 11.729920
148.380000 11.731460
148.400000 11.351940
148.420000 10.726140
148.440000 10.263250
148.460000 9.401832
148.480000 8.759694
148.500000 7.988038
148.520000 6.918083
148.540000 6.074114
148.560000 4.979009
148.580000 3.762004
148.600000 2.486858
148.620000 1.070879
148.640000 -0.277169
148.660000 -1.667143
148.680000 -2.935806
148.700000 -4.251016
148.720000 -5.485259
148.740000 -6.523818
148.760000 -7.649339
148.780000 -8.620570
148.800000 -9.629653
148.820000 -10.500750
148.840000 -11.023090
148.860000 -11.726110
148.880000 -12.192910
148.900000 -12.236030
148.920000 -12.410370
148.940000 -12.299440
148.960000 -12.143570
148.980000 -11.927940
149.000000 -11.487650
149.020000 -11.101420
149.040000 -10.466060
149.060000 -9.661468
149.080000 -8.793148
149.100000 -7.763732
149.120000 -6.664412
149.140000 -5.459632
149.160000 -4.288405
149.180000 -3.073361
149.200000 -1.785835
149.220000 -0.662429
149.240000 0.554211
149.260000 1.822076
149.280000 3.032345
149.300000 4.293194
149.320000 5.471927
149.340000 6.696900
149.360000 7.841899
149.380000 8.681065
149.400000 9.553629
149.420000 10.249130
149.440000 10.728920
149.460000 11.152840
149.480000 11.493140
149.500000 11.797230
149.520000 11.909270
149.540000 11.944410
149.560000 11.909300
149.580000 11.627790
149.600000 11.270930
149.620000 10.718710
149.640000 10.139030
149.660000 9.517136
149.680000 8.635946
149.700000 7.806975
149.720000 7.046746
149.740000 5.955464
149.760000 4.868242
149.780000 3.750298
149.800000 2.375055
149.820000 1.078413
149.840000 -0.348586
149.860000 -1.693511
149.880000 -2.941407
149.900000 -4.282958
149.920000 -5.469631
149.940000 -6.519575
149.960000 -7.627550
149.980000 -8.674595
150.000000 -9.539919
150.020000 -10.382150
150.040000 -11.114990
150.060000 -11.679660
150.080000 -12.077150
150.100000 -12.282280
150.120000 -12.397600
150.140000 -12.332670
150.160000 -12.037970
150.180000 -11.859520
150.200000 -11.624350
150.220000 -11.003340
150.240000 -10.400200
150.260000 -9.721417
150.280000 -8.783695
150.300000 -7.784345
150.320000 -6.573782
150.340000 -5.489880
150.360000 -4.308402
150.380000 -2.953100
150.400000 -1.835953
150.420000 -0.637979
150.440000 0.578255
150.460000 1.768121
150.480000 3.053294
150.500000 4.235374
150.520000 5.490020
150.540000 6.760489
150.560000 7.701165
150.580000 8.735034
150.600000 9.635156
150.620000 10.137740
150.640000 10.677590
150.660000 11.182910
150.680000 11.510820
150.700000 11.769410
150.720000 11.835620
150.740000 11.970710
150.760000 11.968780
150.780000 11.574820
150.800000 11.212430
150.820000 10.799340
150.840000 10.159290
150.860000 9.474622
150.880000 8.649179
150.900000 7.855538
150.920000 7.045262
150.940000 5.953293
150.960000 4.903923
150.980000 3.805317
151.000000 2.382925
151.020000 1.060587
151.040000 -0.240676
151.060000 -1.669481
151.080000 -2.997701
151.100000 -4.252150
151.120000 -5.405817
151.140000 -6.541953
151.160000 -7.625211
151.180000 -8.628510
151.200000 -9.516534
151.220000 -10.368130
151.240000 -11.169490
151.260000 -11.641070
151.280000 -12.052330
151.300000 -12.349620
151.320000 -12.391090
151.340000 -12.268700
151.360000 -12.068730
151.380000 -11.932600
151.400000 -11.557590
151.420000 -10.988670
151.440000 -10.466060
151.460000 -9.777248
151.480000 -8.770028
151.500000 -7.745766
151.520000 -6.658475
151.540000 -5.513055
151.560000 -4.281543
151.580000 -2.955985
151.600000 -1.888522
151.620000 -0.681152
151.640000 0.602341
151.660000 1.771160
151.680000 3.021170
151.700000 4.257205
151.720000 5.516458
151.740000 6.726153
151.760000 7.756899
151.780000 8.736126
151.800000 9.602864
151.820000 10.127350
151.840000 10.729410
151.860000 11.192480
151.880000 11.446560
151.900000 11.728840
151.920000 11.901730
151.940000 11.990370
151.960000 11.854000
151.980000 11.607840
152.000000 11.269780
152.020000 10.779650
152.040000 10.148810
152.060000 9.413385
152.080000 8.705053
152.100000 7.893838
152.120000 6.952419
152.140000 5.967619
152.160000 4.995435
152.180000 3.736630
152.200000 2.400149
152.220000 1.081032
152.240000 -0.294771
152.260000 -1.627331
152.280000 -3.043058
152.300000 -4.218430
152.320000 -5.380051
152.340000 -6.522796
152.360000 -7.597624
152.380000 -8.590197
152.400000 -9.474300
152.420000 -10.396320
152.440000 -11.071750
152.460000 -11.639850
152.480000 -12.042520
152.500000 -12.296640
152.520000 -12.363840
152.540000 -12.229910
152.560000 -12.089550
152.580000 -11.871490
152.600000 -11.535780
152.620000 -11.027710
152.640000 -10.476800
152.660000 -9.740027
152.680000 -8.801592
152.700000 -7.779332
152.720000 -6.660617
152.740000 -5.513377
152.760000 -4.299496
152.780000 -3.029866
152.800000 -1.867587
152.820000 -0.707044
152.840000 0.533416
152.860000 1.783945
152.880000 2.981891
152.900000 4.245835
152.920000 5.474392
152.940000 6.663222
152.960000 7.793517
152.980000 8.708357
153.000000 9.498035
153.020000 10.196750
153.040000 10.731120
153.060000 11.139100
153.080000 11.502040
153.100000 11.736880
153.120000 11.939790
153.140000 12.006180
153.160000 11.863710
153.180000 11.660460
153.200000 11.268870
153.220000 10.776000
153.240000 10.184140
153.260000 9.443506
153.280000 8.686246
153.300000 7.889062
153.320000 7.003882
153.340000 6.019109
153.360000 4.924676
153.380000 3.734712
153.400000 2.489546
153.420000 1.079071
153.440000 -0.378791
153.460000 -1.619461
153.480000 -2.946518
153.500000 -4.261308
153.520000 -5.434552
153.540000 -6.548912
153.560000 -7.518393
153.580000 -8.587046
153.600000 -9.567786
153.620000 -10.355430
153.640000 -11.057490
153.660000 -11.651040
153.680000 -12.073030
153.700000 -12.296240
153.720000 -12.327850
153.740000 -12.249140
153.760000 -12.110740
153.780000 -11.845900
153.800000 -11.578560
153.820000 -11.059420
153.840000 -10.417200
153.860000 -9.760360
153.880000 -8.824935
153.900000 -7.748385
153.920000 -6.672016
153.940000 -5.502231
153.960000 -4.337767
153.980000 -3.063923
154.000000 -1.826753
154.020000 -0.766096
154.040000 0.491168
154.060000 1.769465
154.080000 2.968154
154.100000 4.209174
154.120000 5.438011
154.140000 6.658643
154.160000 7.768802
154.180000 8.666431
154.200000 9.516058
154.220000 10.208870
154.240000 10.690520
154.260000 11.164690
154.280000 11.502110
154.300000 11.786160
154.320000 11.944940
154.340000 11.978200
154.360000 11.945120
154.380000 11.660700
154.400000 11.260090
154.420000 10.829240
154.440000 10.155590
154.460000 9.465463
154.480000 8.754723
154.500000 7.859165
154.520000 7.068465
154.540000 6.023128
154.560000 4.926706
154.580000 3.850380
154.600000 2.444400
154.620000 1.035325
154.640000 -0.259762
154.660000 -1.653139
154.680000 -2.923357
154.700000 -4.286374
154.720000 -5.397065
154.740000 -6.484259
154.760000 -7.602988
154.780000 -8.609634
154.800000 -9.547299
154.820000 -10.357790
154.840000 -11.082280
154.860000 -11.703550
154.880000 -12.042890
154.900000 -12.294490
154.920000 -12.379580
154.940000 -12.238770
154.960000 -12.120320
154.980000 -11.887320
155.000000 -11.545450
155.020000 -11.057520
155.040000 -10.448260
155.060000 -9.763161
155.080000 -8.821771
155.100000 -7.692399
155.120000 -6.712514
155.140000 -5.537617
155.160000 -4.264963
155.180000 -3.037246
155.200000 -1.900131
155.220000 -0.768057
155.240000 0.548176
155.260000 1.751205
155.280000 2.921858
155.300000 4.180299
155.320000 5.461509
155.340000 6.665476
155.360000 7.682891
155.380000 8.646014
155.400000 9.563081
155.420000 10.156530
155.440000 10.637310
155.460000 11.172910
155.480000 11.486440
155.500000 11.732080
155.520000 11.930180
155.540000 11.990580
155.560000 11.886420
155.580000 11.635790
155.600000 11.266000
155.620000 10.807530
155.640000 10.138630
155.660000 9.457075
155.680000 8.747273
155.700000 7.907883
155.720000 6.983311
155.740000 6.012457
155.760000 4.997115
155.780000 3.803510
155.800000 2.389072
155.820000 1.065376
155.840000 -0.238197
155.860000 -1.651627
155.880000 -2.973937
155.900000 -4.262667
155.920000 -5.347563
155.940000 -6.496120
155.960000 -7.617481
155.980000 -8.563072
156.000000 -9.523535
156.020000 -10.364020
156.040000 -11.048360
156.060000 -11.683880
156.080000 -12.037040
156.100000 -12.258740
156.120000 -12.359760
156.140000 -12.226400
156.160000 -12.082310
156.180000 -11.876370
156.200000 -11.497790
156.220000 -11.043030
156.240000 -10.490230
156.260000 -9.690553
156.280000 -8.801158
156.300000 -7.745024
156.320000 -6.687938
156.340000 -5.517760
156.360000 -4.246325
156.380000 -3.079032
156.400000 -1.883929
156.420000 -0.706470
156.440000 0.521835
156.460000 1.762968
156.480000 2.933061
156.500000 4.209272
156.520000 5.497876
156.540000 6.624474
156.560000 7.739156
156.580000 8.682269
156.600000 9.525258
156.620000 10.160600
156.640000 10.682050
156.660000 11.160780
156.680000 11.499590
156.700000 11.714250
156.720000 11.957330
156.740000 11.988180
156.760000 11.875680
156.780000 11.630380
156.800000 11.277860
156.820000 10.771800
156.840000 10.137910
156.860000 9.438689
156.880000 8.709898
156.900000 7.903024
156.920000 6.975021
156.940000 6.011001
156.960000 4.957794
156.980000 3.775182
157.000000 2.374831
157.020000 1.095595
157.040000 -0.297333
157.060000 -1.654358
157.080000 -2.981289
157.100000 -4.245457
157.120000 -5.375976
157.140000 -6.514002
157.160000 -7.590791
157.180000 -8.571839
157.200000 -9.487827
157.220000 -10.374980
157.240000 -11.089770
157.260000 -11.647330
157.280000 -12.039520
157.300000 -12.294020
157.320000 -12.327960
157.340000 -12.243650
157.360000 -12.072390
157.380000 -11.869200
157.400000 -11.515390
157.420000 -11.038110
157.440000 -10.448140
157.460000 -9.723027
157.480000 -8.769888
157.500000 -7.761044
157.520000 -6.674901
157.540000 -5.503295
157.560000 -4.261532
157.580000 -3.054120
157.600000 -1.902917
157.620000 -0.693867
157.640000 0.540082
157.660000 1.740786
157.680000 2.933467
157.700000 4.230767
157.720000 5.489838
157.740000 6.655898
157.760000 7.704526
157.780000 8.718174
157.800000 9.524165
157.820000 10.166840
157.840000 10.678180
157.860000 11.130880
157.880000 11.510870
157.900000 11.726350
157.920000 11.922410
157.940000 11.999190
157.960000 11.864600
157.980000 11.635000
158.000000 11.273440
158.020000 10.731200
158.040000 10.155680
158.060000 9.413665
158.080000 8.700165
158.100000 7.885113
158.120000 6.956802
158.140000 5.984353
158.160000 4.990674
158.180000 3.713651
158.200000 2.422372
158.220000 1.047760
158.240000 -0.293328
158.260000 -1.657620
158.280000 -2.965563
158.300000 -4.235850
158.320000 -5.363177
158.340000 -6.499214
158.360000 -7.533713
158.380000 -8.566111
158.400000 -9.454485
158.420000 -10.380710
158.440000 -11.032430
158.460000 -11.620390
158.480000 -11.997410
158.500000 -12.295380
158.520000 -12.296790
158.540000 -12.209230
158.560000 -12.047330
158.580000 -11.878710
158.600000 -11.509390
158.620000 -11.014870
158.640000 -10.433500
158.660000 -9.755725
158.680000 -8.777128
158.700000 -7.771000
158.720000 -6.665028
158.740000 -5.540278
158.760000 -4.301834
158.780000 -3.089409
158.800000 -1.914316
158.820000 -0.747640
158.840000 0.470009
158.860000 1.699238
158.880000 2.904606
158.900000 4.207928
158.920000 5.451637
158.940000 6.591286
158.960000 7.704918
158.980000 8.721913
159.000000 9.468530
159.020000 10.143860
159.040000 10.688110
159.060000 11.187080
159.080000 11.481220
159.100000 11.765750
159.120000 11.926790
159.140000 12.045440
159.160000 11.863760
159.180000 11.647830
159.200000 11.271520
159.220000 10.797770
159.240000 10.123780
159.260000 9.446461
159.280000 8.707685
159.300000 7.896666
159.320000 6.945544
159.340000 6.050939
159.360000 4.928681
159.380000 3.745368
159.400000 2.411702
159.420000 1.046444
159.440000 -0.301716
159.460000 -1.669803
159.480000 -2.997617
159.500000 -4.197481
159.520000 -5.419275
159.540000 -6.508387
159.560000 -7.528392
159.580000 -8.589105
159.600000 -9.478921
159.620000 -10.366970
159.640000 -11.033550
159.660000 -11.611300
159.680000 -12.045740
159.700000 -12.259420
159.720000 -12.292390
159.740000 -12.228710
159.760000 -12.061790
159.780000 -11.867490
159.800000 -11.519310
159.820000 -11.026470
159.840000 -10.468020
159.860000 -9.695609
159.880000 -8.818284
159.900000 -7.734633
159.920000 -6.646222
159.940000 -5.534760
159.960000 -4.261925
159.980000 -3.057999
160.000000 -1.881506
160.020000 -0.689946
160.040000 0.484138
160.060000 1.752283
160.080000 2.992589
160.100000 4.225684
160.120000 5.494473
160.140000 6.639122
160.160000 7.772162
160.180000 8.722669
160.200000 9.554483
160.220000 10.171490
160.240000 10.710530
160.260000 11.208210
160.280000 11.541010
160.300000 11.719780
160.320000 11.987710
160.340000 11.972370
160.360000 11.945280
160.380000 11.609210
160.400000 11.234890
160.420000 10.758020
160.440000 10.144570
160.460000 9.377312
160.480000 8.687478
160.500000 7.799469
160.520000 6.987484
160.540000 5.984787
160.560000 4.900422
160.580000 3.707797
160.600000 2.370280
160.620000 1.030424
160.640000 -0.348320
160.660000 -1.721476
160.680000 -3.002182
160.700000 -4.226706
160.720000 -5.403563
160.740000 -6.509255
160.760000 -7.602624
160.780000 -8.507843
160.800000 -9.517948
160.820000 -10.360940
160.840000 -11.038130
160.860000 -11.629640
160.880000 -11.984560
160.900000 -12.248350
160.920000 -12.307700
160.940000 -12.166870
160.960000 -12.013430
160.980000 -11.836420
161.000000 -11.460400
161.020000 -10.990150
161.040000 -10.373860
161.060000 -9.680051
161.080000 -8.720050
161.100000 -7.699807
161.120000 -6.579188
161.140000 -5.476016
161.160000 -4.238105
161.180000 -2.982871
161.200000 -1.835603
161.220000 -0.717616
161.240000 0.561479
161.260000 1.755336
161.280000 2.982129
161.300000 4.220096
161.320000 5.459254
161.340000 6.687602
161.360000 7.689276
161.380000 8.690447
161.400000 9.489913
161.420000 10.125260
161.440000 10.651830
161.460000 11.108250
161.480000 11.439620
161.500000 11.729150
161.520000 11.854650
161.540000 11.979150
161.560000 11.843630
161.580000 11.547990
161.600000 11.191460
161.620000 10.738680
161.640000 10.033430
161.660000 9.394760
161.680000 8.593852
161.700000 7.875087
161.720000 6.939438
161.740000 5.947440
161.760000 4.927477
161.780000 3.738241
161.800000 2.436348
161.820000 1.018297
161.840000 -0.302711
161.860000 -1.597182
161.880000 -2.956503
161.900000 -4.192118
161.920000 -5.326096
161.940000 -6.446338
161.960000 -7.495358
161.980000 -8.497859
162.000000 -9.433606
162.020000 -10.286050
162.040000 -11.001170
162.060000 -11.585350
162.080000 -11.927020
162.100000 -12.254850
162.120000 -12.280150
162.140000 -12.139000
162.160000 -12.026540
162.180000 -11.847130
162.200000 -11.519870
162.220000 -10.972510
162.240000 -10.424890
162.260000 -9.731135
162.280000 -8.810078
162.300000 -7.684389
162.320000 -6.656458
162.340000 -5.538653
162.360000 -4.278561
162.380000 -3.040103
162.400000 -1.916473
162.420000 -0.736325
162.440000 0.499388
162.460000 1.720216
162.480000 2.922685
162.500000 4.219354
162.520000 5.420633
162.540000 6.651809
162.560000 7.676547
162.580000 8.701314
162.600000 9.491020
162.620000 10.104140
162.640000 10.664600
162.660000 11.158180
162.680000 11.475090
162.700000 11.703470
162.720000 11.919440
162.740000 12.022180
162.760000 11.832340
162.780000 11.591590
162.800000 11.248830
162.820000 10.756140
162.840000 10.083610
162.860000 9.410206
162.880000 8.647555
162.900000 7.915851
162.920000 6.920506
162.940000 5.979787
162.960000 4.966112
162.980000 3.754176
163.000000 2.404840
163.020000 1.046668
163.040000 -0.306030
163.060000 -1.597560
163.080000 -2.992771
163.100000 -4.167052
163.120000 -5.350518
163.140000 -6.439252
163.160000 -7.488524
163.180000 -8.480089
163.200000 -9.455661
163.220000 -10.271690
163.240000 -11.014530
163.260000 -11.537680
163.280000 -11.987960
163.300000 -12.245160
163.320000 -12.228160
163.340000 -12.174580
163.360000 -12.026370
163.380000 -11.892820
163.400000 -11.478380
163.420000 -11.011480
163.440000 -10.488760
163.460000 -9.721767
163.480000 -8.789073
163.500000 -7.747488
163.520000 -6.685389
163.540000 -5.538821
163.560000 -4.279919
163.580000 -3.070224
163.600000 -1.942869
163.620000 -0.712757
163.640000 0.452813
163.660000 1.704420
163.680000 2.932151
163.700000 4.175580
163.720000 5.450978
163.740000 6.576317
163.760000 7.697104
163.780000 8.708623
163.800000 9.440285
163.820000 10.116790
163.840000 10.676820
163.860000 11.141200
163.880000 11.492240
163.900000 11.684310
163.920000 11.956680
163.940000 12.020560
163.960000 11.821940
163.980000 11.620480
164.000000 11.261340
164.020000 10.733720
164.040000 10.106130
164.060000 9.386176
164.080000 8.716465
164.100000 7.863814
164.120000 6.957699
164.140000 6.019655
164.160000 4.963675
164.180000 3.751894
164.200000 2.411702
164.220000 1.059383
164.240000 -0.254399
164.260000 -1.646138
164.280000 -2.935526
164.300000 -4.166268
164.320000 -5.336487
164.340000 -6.437025
164.360000 -7.492963
164.380000 -8.506051
164.400000 -9.424560
164.420000 -10.335720
164.440000 -10.946240
164.460000 -11.608220
164.480000 -11.982320
164.500000 -12.237400
164.520000 -12.287940
164.540000 -12.201460
164.560000 -12.073860
164.580000 -11.897830
164.600000 -11.482440
164.620000 -11.076190
164.640000 -10.429360
164.660000 -9.773425
164.680000 -8.763895
164.700000 -7.746032
164.720000 -6.658027
164.740000 -5.531190
164.760000 -4.253733
164.780000 -3.078780
164.800000 -1.835239
164.820000 -0.768295
164.840000 0.498478
164.860000 1.748670
164.880000 2.954332
164.900000 4.208376
164.920000 5.462909
164.940000 6.622262
164.960000 7.769488
164.980000 8.666949
165.000000 9.487393
165.020000 10.150190
165.040000 10.679260
165.060000 11.187140
165.080000 11.455590
165.100000 11.738940
165.120000 11.926360
165.140000 12.002510
165.160000 11.860520
165.180000 11.585810
165.200000 11.210030
165.220000 10.779680
165.240000 10.088560
165.260000 9.379721
165.280000 8.647597
165.300000 7.880730
165.320000 6.950963
165.340000 5.974746
165.360000 4.873662
165.380000 3.769930
165.400000 2.383205
165.420000 1.030536
165.440000 -0.335255
165.460000 -1.623998
165.480000 -2.947569
165.500000 -4.195801
165.520000 -5.370809
165.540000 -6.393209
165.560000 -7.503676
165.580000 -8.486152
165.600000 -9.449247
165.620000 -10.269240
165.640000 -10.995530
165.660000 -11.528260
165.680000 -11.986150
165.700000 -12.182970
165.720000 -12.270340
165.740000 -12.162220
165.760000 -12.046050
165.780000 -11.831920
165.800000 -11.530780
165.820000 -10.984940
165.840000 -10.456800
165.860000 -9.688551
165.880000 -8.797335
165.900000 -7.691643
165.920000 -6.678920
165.940000 -5.495901
165.960000 -4.294650
165.980000 -3.044052
166.000000 -1.902427
166.020000 -0.767034
166.040000 0.487205
166.060000 1.731446
166.080000 2.907407
166.100000 4.202396
166.120000 5.408212
166.140000 6.616338
166.160000 7.680286
166.180000 8.638509
166.200000 9.490613
166.220000 10.098600
166.240000 10.657490
166.260000 11.136420
166.280000 11.467620
166.300000 11.725580
166.320000 11.906190
166.340000 11.989510
166.360000 11.870320
166.380000 11.564950
166.400000 11.235210
166.420000 10.767150
166.440000 10.082980
166.460000 9.417040
166.480000 8.660970
166.500000 7.863030
166.520000 7.006290
166.540000 5.926687
166.560000 4.962695
166.580000 3.757327
166.600000 2.381034
166.620000 1.058837
166.640000 -0.301366
166.660000 -1.619671
166.680000 -2.921116
166.700000 -4.223401
166.720000 -5.290724
166.740000 -6.434113
166.760000 -7.503438
166.780000 -8.463817
166.800000 -9.438661
166.820000 -10.287110
166.840000 -10.962280
166.860000 -11.583360
166.880000 -11.915660
166.900000 -12.248590
166.920000 -12.253060
166.940000 -12.163520
166.960000 -12.041630
166.980000 -11.840040
167.000000 -11.518450
167.020000 -10.984090
167.040000 -10.423080
167.060000 -9.733894
167.080000 -8.758349
167.100000 -7.721848
167.120000 -6.676119
167.140000 -5.495201
167.160000 -4.302422
167.180000 -3.054050
167.200000 -1.935125
167.220000 -0.725542
167.240000 0.450082
167.260000 1.698734
167.280000 2.884651
167.300000 4.170104
167.320000 5.402569
167.340000 6.608329
167.360000 7.611418
167.380000 8.692842
167.400000 9.446503
167.420000 10.092770
167.440000 10.654840
167.460000 11.107090
167.480000 11.445150
167.500000 11.753080
167.520000 11.828320
167.540000 11.986830
167.560000 11.851640
167.580000 11.573800
167.600000 11.244090
167.620000 10.708150
167.640000 10.114060
167.660000 9.405893
167.680000 8.671066
167.700000 7.845764
167.720000 6.962390
167.740000 6.016812
167.760000 4.926006
167.780000 3.748883
167.800000 2.424571
167.820000 1.062267
167.840000 -0.261751
167.860000 -1.587170
167.880000 -2.947919
167.900000 -4.115225
167.920000 -5.294589
167.940000 -6.407086
167.960000 -7.425383
167.980000 -8.450233
168.000000 -9.415331
168.020000 -10.230020
168.040000 -10.964510
168.060000 -11.559040
168.080000 -11.931150
168.100000 -12.244940
168.120000 -12.255050
168.140000 -12.145830
168.160000 -12.059730
168.180000 -11.859650
168.200000 -11.504020
168.220000 -11.013050
168.240000 -10.454960
168.260000 -9.715676
168.280000 -8.810932
168.300000 -7.707145
168.320000 -6.676819
168.340000 -5.533024
168.360000 -4.291934
168.380000 -3.072030
168.400000 -1.937142
168.420000 -0.764318
168.440000 0.452645
168.460000 1.672324
168.480000 2.906035
168.500000 4.155289
168.520000 5.396309
168.540000 6.563420
168.560000 7.659505
168.580000 8.642205
168.600000 9.451278
168.620000 10.060440
168.640000 10.654010
168.660000 11.151570
168.680000 11.445460
168.700000 11.697100
168.720000 11.915700
168.740000 12.007160
168.760000 11.852520
168.780000 11.577270
168.800000 11.232620
168.820000 10.774710
168.840000 10.086720
168.860000 9.405193
168.880000 8.697813
168.900000 7.903150
168.920000 6.987918
168.940000 5.996045
168.960000 5.002016
168.980000 3.741489
169.000000 2.453544
169.020000 1.054776
169.040000 -0.247369
169.060000 -1.583459
169.080000 -2.921816
169.100000 -4.102538
169.120000 -5.282658
169.140000 -6.384639
169.160000 -7.440633
169.180000 -8.426708
169.200000 -9.414813
169.220000 -10.254480
169.240000 -10.976480
169.260000 -11.536370
169.280000 -11.990330
169.300000 -12.251350
169.320000 -12.257150
169.340000 -12.206440
169.360000 -12.087930
169.380000 -11.904080
169.400000 -11.500880
169.420000 -11.036800
169.440000 -10.506660
169.460000 -9.733404
169.480000 -8.790123
169.500000 -7.749253
169.520000 -6.678163
169.540000 -5.545823
169.560000 -4.262597
169.580000 -3.057453
169.600000 -1.937562
169.620000 -0.742220
169.640000 0.489950
169.660000 1.719767
169.680000 2.931017
169.700000 4.194400
169.720000 5.419597
169.740000 6.647944
169.760000 7.730614
169.780000 8.669666
169.800000 9.455059
169.820000 10.133260
169.840000 10.717920
169.860000 11.118970
169.880000 11.447580
169.900000 11.710580
169.920000 11.969690
169.940000 11.973730
169.960000 11.818800
169.980000 11.569510
170.000000 11.259080
170.020000 10.728780
170.040000 10.015150
170.060000 9.400600
170.080000 8.682451
170.100000 7.854096
170.120000 6.927213
170.140000 5.984703
170.160000 4.953775
170.180000 3.767480
170.200000 2.371596
170.220000 1.052675
170.240000 -0.252061
170.260000 -1.604464
170.280000 -2.917349
170.300000 -4.149309
170.320000 -5.289071
170.340000 -6.375467
170.360000 -7.418437
170.380000 -8.491921
170.400000 -9.419672
170.420000 -10.234700
170.440000 -10.944130
170.460000 -11.584630
170.480000 -11.983230
170.500000 -12.191830
170.520000 -12.218510
170.540000 -12.190320
170.560000 -12.100200
170.580000 -11.768370
170.600000 -11.480660
170.620000 -11.048140
170.640000 -10.452690
170.660000 -9.668848
170.680000 -8.755031
170.700000 -7.745780
170.720000 -6.661583
170.740000 -5.475288
170.760000 -4.243370
170.780000 -3.058909
170.800000 -1.935251
170.820000 -0.736185
170.840000 0.511529
170.860000 1.690724
170.880000 2.943816
170.900000 4.142826
170.920000 5.412819
170.940000 6.685123
170.960000 7.667921
170.980000 8.597269
171.000000 9.497349
171.020000 10.132010
171.040000 10.661270
171.060000 11.084220
171.080000 11.420980
171.100000 11.804180
171.120000 11.898250
171.140000 11.906450
171.160000 11.829080
171.180000 11.617810
171.200000 11.234090
171.220000 10.662820
171.240000 10.066540
171.260000 9.406159
171.280000 8.675183
171.300000 7.818233
171.320000 6.945054
171.340000 5.982350
171.360000 4.955147
171.380000 3.736224
171.400000 2.385459
171.420000 1.050364
171.440000 -0.274116
171.460000 -1.567201
171.480000 -2.912518
171.500000 -4.189877
171.520000 -5.270839
171.540000 -6.324466
171.560000 -7.473008
171.580000 -8.470692
171.600000 -9.416690
171.620000 -10.213400
171.640000 -10.946460
171.660000 -11.612700
171.680000 -11.934920
171.700000 -12.123720
171.720000 -12.255720
171.740000 -12.182870
171.760000 -12.003870
171.780000 -11.836570
171.800000 -11.463630
171.820000 -11.047090
171.840000 -10.427790
171.860000 -9.690904
171.880000 -8.784466
171.900000 -7.706697
171.920000 -6.647958
171.940000 -5.499318
171.960000 -4.276586
171.980000 -3.054260
172.000000 -1.936273
172.020000 -0.785001
172.040000 0.477263
172.060000 1.723772
172.080000 2.856869
172.100000 4.140599
172.120000 5.434538
172.140000 6.588808
172.160000 7.661564
172.180000 8.576558
172.200000 9.459302
172.220000 10.103610
172.240000 10.589210
172.260000 11.069910
172.280000 11.455800
172.300000 11.704320
172.320000 11.879210
172.340000 11.915020
172.360000 11.813250
172.380000 11.588540
172.400000 11.186530
172.420000 10.700410
172.440000 10.051480
172.460000 9.424462
172.480000 8.681947
172.500000 7.871544
172.520000 6.956228
172.540000 6.027987
172.560000 5.010600
172.580000 3.756431
172.600000 2.420440
172.620000 1.095749
172.640000 -0.211927
172.660000 -1.550607
172.680000 -2.894468
172.700000 -4.123683
172.720000 -5.215624
172.740000 -6.337882
172.760000 -7.459257
172.780000 -8.461016
172.800000 -9.362917
172.820000 -10.260530
172.840000 -10.976470
172.860000 -11.556940
172.880000 -11.972180
172.900000 -12.163160
172.920000 -12.271230
172.940000 -12.186650
172.960000 -12.027550
172.980000 -11.841300
173.000000 -11.515510
173.020000 -10.986850
173.040000 -10.468550
173.060000 -9.699810
173.080000 -8.736896
173.100000 -7.728878
173.120000 -6.628213
173.140000 -5.523698
173.160000 -4.235276
173.180000 -3.036168
173.200000 -1.928025
173.220000 -0.782522
173.240000 0.510269
173.260000 1.709699
173.280000 2.887648
173.300000 4.145388
173.320000 5.434482
173.340000 6.596888
173.360000 7.600117
173.380000 8.620360
173.400000 9.409520
173.420000 10.080100
173.440000 10.558920
173.460000 11.027570
173.480000 11.469090
173.500000 11.629450
173.520000 11.852490
173.540000 11.928470
173.560000 11.789110
173.580000 11.566890
173.600000 11.144420
173.620000 10.706920
173.640000 10.080940
173.660000 9.364835
173.680000 8.685924
173.700000 7.846394
173.720000 6.999877
173.740000 6.041080
173.760000 4.972693
173.780000 3.772409
173.800000 2.469032
173.820000 1.075809
173.840000 -0.177409
173.860000 -1.572354
173.880000 -2.907477
173.900000 -4.026724
173.920000 -5.275110
173.940000 -6.337924
173.960000 -7.458109
173.980000 -8.428220
174.000000 -9.375478
174.020000 -10.286580
174.040000 -10.967880
174.060000 -11.535930
174.080000 -11.967320
174.100000 -12.193380
174.120000 -12.240580
174.140000 -12.180980
174.160000 -11.992550
174.180000 -11.859530
174.200000 -11.478060
174.220000 -10.993710
174.240000 -10.452410
174.260000 -9.663877
174.280000 -8.762368
174.300000 -7.725195
174.320000 -6.629726
174.340000 -5.483732
174.360000 -4.257597
174.380000 -3.074369
174.400000 -1.894053
174.420000 -0.728483
174.440000 0.465864
174.460000 1.713340
174.480000 2.898137
174.500000 4.174193
174.520000 5.399796
174.540000 6.587225
174.560000 7.642995
174.580000 8.600643
174.600000 9.421661
174.620000 10.025010
174.640000 10.625450
174.660000 11.027570
174.680000 11.413390
174.700000 11.671510
174.720000 11.848320
174.740000 11.930250
174.760000 11.795850
174.780000 11.527500
174.800000 11.176620
174.820000 10.717240
174.840000 10.052200
174.860000 9.401524
174.880000 8.657889
174.900000 7.882915
174.920000 7.001529
174.940000 6.023114
174.960000 4.962639
174.980000 3.806073
175.000000 2.436712
175.020000 1.118533
175.040000 -0.217010
175.060000 -1.570548
175.080000 -2.857471
175.100000 -4.093856
175.120000 -5.249582
175.140000 -6.366392
175.160000 -7.430242
175.180000 -8.448147
175.200000 -9.378783
175.220000 -10.290120
175.240000 -10.966110
175.260000 -11.527460
175.280000 -11.945390
175.300000 -12.203630
175.320000 -12.263970
175.340000 -12.134800
175.360000 -12.018360
175.380000 -11.846180
175.400000 -11.507850
175.420000 -10.983160
175.440000 -10.429120
175.460000 -9.672965
175.480000 -8.797335
175.500000 -7.702019
175.520000 -6.594507
175.540000 -5.518629
175.560000 -4.260370
175.580000 -3.047973
175.600000 -1.906390
175.620000 -0.730304
175.640000 0.475932
175.660000 1.662116
175.680000 2.924533
175.700000 4.176616
175.720000 5.386577
175.740000 6.542625
175.760000 7.625057
175.780000 8.591835
175.800000 9.387031
175.820000 9.978057
175.840000 10.563990
175.860000 11.044300
175.880000 11.375730
175.900000 11.604100
175.920000 11.807750
175.940000 11.926330
175.960000 11.761230
175.980000 11.515210
176.000000 11.138750
176.020000 10.712720
176.040000 10.067830
176.060000 9.391932
176.080000 8.675547
176.100000 7.881823
176.120000 7.048104
176.140000 6.029864
176.160000 5.023610
176.180000 3.837875
176.200000 2.498621
176.220000 1.199794
176.240000 -0.180727
176.260000 -1.486149
176.280000 -2.785788
176.300000 -4.055389
176.320000 -5.197391
176.340000 -6.346382
176.360000 -7.379494
176.380000 -8.433611
176.400000 -9.392674
176.420000 -10.263080
176.440000 -10.984170
176.460000 -11.527920
176.480000 -11.984990
176.500000 -12.233100
176.520000 -12.292940
176.540000 -12.166310
176.560000 -12.073940
176.580000 -11.872490
176.600000 -11.534810
176.620000 -11.032540
176.640000 -10.430800
176.660000 -9.766270
176.680000 -8.782393
176.700000 -7.729830
176.720000 -6.619755
176.740000 -5.517914
176.760000 -4.315235
176.780000 -3.055478
176.800000 -1.900901
176.820000 -0.775058
176.840000 0.445797
176.860000 1.678612
176.880000 2.913960
176.900000 4.161940
176.920000 5.351064
176.940000 6.546476
176.960000 7.642855
176.980000 8.597437
177.000000 9.366025
177.020000 10.017080
177.040000 10.580610
177.060000 11.064200
177.080000 11.377680
177.100000 11.629560
177.120000 11.803000
177.140000 11.949110
177.160000 11.791160
177.180000 11.491060
177.200000 11.222230
177.220000 10.703150
177.240000 10.136450
177.260000 9.385462
177.280000 8.697477
177.300000 7.926675
177.320000 7.032449
177.340000 6.036725
177.360000 4.989539
177.380000 3.849343
177.400000 2.488692
177.420000 1.152085
177.440000 -0.188653
177.460000 -1.498668
177.480000 -2.830458
177.500000 -4.106165
177.520000 -5.223158
177.540000 -6.373996
177.560000 -7.443153
177.580000 -8.454476
177.600000 -9.431057
177.620000 -10.232900
177.640000 -11.015190
177.660000 -11.528020
177.680000 -11.975820
177.700000 -12.191690
177.720000 -12.297830
177.740000 -12.143300
177.760000 -12.053130
177.780000 -11.831880
177.800000 -11.507180
177.820000 -10.992040
177.840000 -10.410890
177.860000 -9.710270
177.880000 -8.780769
177.900000 -7.680216
177.920000 -6.636321
177.940000 -5.524426
177.960000 -4.278084
177.980000 -3.019448
178.000000 -1.910381
178.020000 -0.773056
178.040000 0.471115
178.060000 1.707108
178.080000 2.930596
178.100000 4.089823
178.120000 5.396603
178.140000 6.579090
178.160000 7.600439
178.180000 8.576600
178.200000 9.364639
178.220000 10.043980
178.240000 10.557840
178.260000 11.031890
178.280000 11.372920
178.300000 11.627250
178.320000 11.797120
178.340000 11.905450
178.360000 11.772270
178.380000 11.497140
178.400000 11.185080
178.420000 10.698770
178.440000 10.121760
178.460000 9.343718
178.480000 8.702602
178.500000 7.936604
178.520000 6.992847
178.540000 6.045309
178.560000 4.989904
178.580000 3.846725
178.600000 2.532425
178.620000 1.129946
178.640000 -0.150438
178.660000 -1.462007
178.680000 -2.853158
178.700000 -4.037044
178.720000 -5.253307
178.740000 -6.329690
178.760000 -7.424879
178.780000 -8.451620
178.800000 -9.378278
178.820000 -10.268960
178.840000 -10.969890
178.860000 -11.516020
178.880000 -11.956270
178.900000 -12.233300
178.920000 -12.240790
178.940000 -12.186610
178.960000 -12.008890
178.980000 -11.859380
179.000000 -11.473280
179.020000 -10.998190
179.040000 -10.442380
179.060000 -9.696365
179.080000 -8.795878
179.100000 -7.720294
179.120000 -6.680544
179.140000 -5.530293
179.160000 -4.288321
179.180000 -3.073767
179.200000 -1.952363
179.220000 -0.747752
179.240000 0.448388
179.260000 1.688120
179.280000 2.882845
179.300000 4.123067
179.320000 5.376901
179.340000 6.534069
179.360000 7.623909
179.380000 8.530375
179.400000 9.399900
179.420000 10.024130
179.440000 10.554940
179.460000 11.052970
179.480000 11.366150
179.500000 11.619740
179.520000 11.864340
179.540000 11.856470
179.560000 11.783120
179.580000 11.553000
179.600000 11.173650
179.620000 10.768180
179.640000 10.092270
179.660000 9.419518
179.680000 8.744206
179.700000 7.916327
179.720000 7.004764
179.740000 6.073974
179.760000 5.012771
179.780000 3.860140
179.800000 2.499419
179.820000 1.171634
179.840000 -0.147819
179.860000 -1.504046
179.880000 -2.800981
179.900000 -4.115071
179.920000 -5.211213
179.940000 -6.377343
179.960000 -7.455000
179.980000 -8.440193