/***********************************************************
* Ocean Resources and Renewable Energy Laboratory
* Version: v1.0 (Released on May 1st, 2021)
* Programmed by: Jessica Nguyen (Email: nvnguyen@umass.edu)
*----------------------------------------------------------
* Project Name:	NREL_VGOSWEC_inertia
* Project Lead:	JD
* Labview Operator:	JD
* Comments:	Dry swing test to determine moment of inertia of VGOSWEC. Naming convention: PHI (signed initial pos in deg) VGM (variable geometry module angle in deg).
* Date and Time:	Thu 03 Jun 2021 05:27:41 PM EDT
***********************************************************/

"Time(s)"	"Roll(deg)"	"Pitch(deg)"	
0.00000	0.00000	0.00000
0.00200	-2.07460	90.09000
0.00400	0.00000	0.00000
0.00600	-2.07460	90.09000
0.00800	-1.98440	90.09000
0.01000	-1.80400	90.00000
0.01200	-1.80400	90.00000
0.01400	-1.80400	90.09000
0.01600	0.00000	0.00000
0.01800	-1.62360	90.09000
0.02000	-1.62360	90.00000
0.02200	-1.53340	89.91000
0.02400	-1.44320	89.91000
0.02600	-1.35300	89.91000
0.02800	-1.17260	90.00000
0.03000	-1.17260	90.00000
0.03200	-1.08240	89.91000
0.03400	0.00000	0.00000
0.03600	-1.08240	89.82000
0.03800	-0.99220	89.82000
0.04000	-0.90200	89.82000
0.04200	0.00000	0.00000
0.04400	0.00000	0.00000
0.04600	-0.90200	89.73000
0.04800	-0.81180	89.64000
0.05000	-0.81180	89.55000
0.05200	-0.81180	89.55000
0.05400	-0.72160	89.64000
0.05600	-0.72160	89.55000
0.05800	-0.63140	89.64000
0.06000	-0.54120	89.64000
0.06200	-0.81180	89.46000
0.06400	-0.81180	89.55000
0.06600	-0.72160	89.46000
0.06800	-0.72160	89.46000
0.07000	0.00000	0.00000
0.07200	-0.72160	89.64000
0.07400	-0.72160	89.64000
0.07600	0.00000	0.00000
0.07800	-0.72160	89.64000
0.08000	-0.81180	89.55000
0.08200	-0.72160	89.55000
0.08400	0.00000	0.00000
0.08600	-0.63140	89.55000
0.08800	-0.72160	89.46000
0.09000	-0.72160	89.64000
0.09200	-0.72160	89.73000
0.09400	-0.63140	89.73000
0.09600	-0.45100	89.73000
0.09800	-0.36080	89.73000
0.10000	-0.36080	89.73000
0.10200	-0.27060	89.73000
0.10400	-0.18040	89.64000
0.10600	-0.18040	89.64000
0.10800	-0.27060	89.73000
0.11000	-0.09020	89.73000
0.11200	0.00000	89.64000
0.11400	0.00000	89.64000
0.11600	0.09020	89.64000
0.11800	0.09020	89.73000
0.12000	0.18040	89.64000
0.12200	0.18040	89.73000
0.12400	0.09020	89.73000
0.12600	0.18040	89.73000
0.12800	0.27060	89.82000
0.13000	0.27060	89.91000
0.13200	0.27060	90.00000
0.13400	0.36080	90.09000
0.13600	0.36080	90.09000
0.13800	0.27060	90.09000
0.14000	0.00000	0.00000
0.14200	0.36080	90.18000
0.14400	0.27060	90.18000
0.14600	0.00000	0.00000
0.14800	0.27060	90.27000
0.15000	0.18040	90.36000
0.15200	0.27060	90.45000
0.15400	0.36080	90.36000
0.15600	0.36080	90.45000
0.15800	0.36080	90.27000
0.16000	0.00000	0.00000
0.16200	0.54120	90.27000
0.16400	0.00000	0.00000
0.16600	0.54120	90.36000
0.16800	0.45100	90.36000
0.17000	0.54120	90.45000
0.17200	0.54120	90.54000
0.17400	0.00000	0.00000
0.17600	0.54120	90.54000
0.17800	0.54120	90.45000
0.18000	0.54120	90.45000
0.18200	0.45100	90.45000
0.18400	0.36080	90.36000
0.18600	0.27060	90.45000
0.18800	0.45100	90.45000
0.19000	0.00000	0.00000
0.19200	0.45100	90.45000
0.19400	0.00000	0.00000
0.19600	0.45100	90.45000
0.19800	0.45100	90.45000
0.20000	0.36080	90.27000
0.20200	0.00000	0.00000
0.20400	0.27060	90.36000
0.20600	0.27060	90.36000
0.20800	0.45100	90.36000
0.21000	0.45100	90.27000
0.21200	0.45100	90.18000
0.21400	0.36080	90.09000
0.21600	0.00000	0.00000
0.21800	0.36080	90.00000
0.22000	0.54120	90.00000
0.22200	0.54120	90.00000
0.22400	0.45100	90.00000
0.22600	0.54120	90.00000
0.22800	0.63140	89.82000
0.23000	0.00000	0.00000
0.23200	0.45100	89.82000
0.23400	0.00000	0.00000
0.23600	0.45100	89.91000
0.23800	0.45100	89.91000
0.24000	0.54120	89.91000
0.24200	0.36080	89.73000
0.24400	0.00000	0.00000
0.24600	0.45100	89.73000
0.24800	0.36080	89.64000
0.25000	0.36080	89.73000
0.25200	0.27060	89.73000
0.25400	0.36080	89.64000
0.25600	0.27060	89.64000
0.25800	0.00000	0.00000
0.26000	0.18040	89.64000
0.26200	0.18040	89.55000
0.26400	0.27060	89.64000
0.26600	0.18040	89.55000
0.26800	0.18040	89.55000
0.27000	0.09020	89.55000
0.27200	0.00000	0.00000
0.27400	0.00000	89.55000
0.27600	0.00000	89.46000
0.27800	0.00000	89.37000
0.28000	0.00000	89.46000
0.28200	-0.09020	89.55000
0.28400	-0.18040	89.64000
0.28600	0.00000	0.00000
0.28800	-0.09020	89.64000
0.29000	-0.18040	89.64000
0.29200	-0.18040	89.64000
0.29400	-0.27060	89.73000
0.29600	-0.27060	89.73000
0.29800	-0.45100	89.91000
0.30000	0.00000	0.00000
0.30200	-0.45100	89.82000
0.30400	-0.54120	89.82000
0.30600	-0.45100	89.91000
0.30800	-0.45100	89.91000
0.31000	-0.45100	89.91000
0.31200	-0.63140	90.00000
0.31400	-0.63140	89.91000
0.31600	0.00000	0.00000
0.31800	-0.63140	90.00000
0.32000	-0.54120	90.00000
0.32200	-0.54120	90.00000
0.32400	-0.54120	90.00000
0.32600	-0.72160	89.91000
0.32800	0.00000	0.00000
0.33000	-0.90200	90.00000
0.33200	-0.90200	90.00000
0.33400	-0.90200	90.09000
0.33600	-0.72160	90.00000
0.33800	-0.81180	90.09000
0.34000	-0.81180	90.09000
0.34200	0.00000	0.00000
0.34400	-0.90200	90.18000
0.34600	-0.99220	90.27000
0.34800	-0.90200	90.18000
0.35000	-0.99220	90.09000
0.35200	-0.99220	90.09000
0.35400	-0.90200	90.09000
0.35600	0.00000	0.00000
0.35800	-0.90200	90.09000
0.36000	-0.99220	90.00000
0.36200	-0.99220	90.00000
0.36400	-0.99220	90.00000
0.36600	-0.90200	90.00000
0.36800	-0.72160	89.82000
0.37000	0.00000	0.00000
0.37200	-0.81180	89.82000
0.37400	-0.81180	89.91000
0.37600	-0.81180	89.82000
0.37800	-0.81180	89.91000
0.38000	-0.90200	89.82000
0.38200	-0.72160	89.82000
0.38400	0.00000	0.00000
0.38600	-0.72160	89.91000
0.38800	-0.72160	89.91000
0.39000	-0.63140	89.91000
0.39200	-0.63140	89.82000
0.39400	-0.63140	89.82000
0.39600	-0.63140	89.82000
0.39800	0.00000	0.00000
0.40000	-0.63140	89.82000
0.40200	-0.63140	89.91000
0.40400	-0.54120	89.82000
0.40600	-0.45100	89.91000
0.40800	-0.54120	89.73000
0.41000	-0.45100	89.73000
0.41200	0.00000	0.00000
0.41400	-0.45100	89.64000
0.41600	-0.54120	89.64000
0.41800	-0.54120	89.55000
0.42000	-0.54120	89.55000
0.42200	-0.45100	89.64000
0.42400	-0.36080	89.73000
0.42600	0.00000	0.00000
0.42800	-0.54120	89.64000
0.43000	-0.45100	89.64000
0.43200	-0.54120	89.73000
0.43400	-0.63140	89.82000
0.43600	-0.54120	89.73000
0.43800	-0.72160	89.82000
0.44000	-0.72160	89.82000
0.44200	-0.63140	89.82000
0.44400	0.00000	0.00000
0.44600	-0.72160	89.91000
0.44800	-0.72160	89.91000
0.45000	-0.81180	89.82000
0.45200	-0.81180	89.82000
0.45400	0.00000	0.00000
0.45600	-0.90200	89.73000
0.45800	-0.99220	89.82000
0.46000	-0.99220	90.00000
0.46200	-1.08240	89.91000
0.46400	-1.17260	89.82000
0.46600	-1.17260	90.00000
0.46800	0.00000	0.00000
0.47000	-1.26280	90.09000
0.47200	-1.44320	90.09000
0.47400	-1.53340	90.00000
0.47600	-1.53340	90.09000
0.47800	-1.62360	90.09000
0.48000	-1.71380	90.18000
0.48200	0.00000	0.00000
0.48400	-1.80400	90.18000
0.48600	-1.71380	90.18000
0.48800	-1.80400	90.27000
0.49000	-1.89420	90.27000
0.49200	-1.89420	90.27000
0.49400	-1.80400	90.27000
0.49600	0.00000	0.00000
0.49800	-1.89420	90.18000
0.50000	-1.89420	90.18000
0.50200	-1.89420	90.18000
0.50400	-1.89420	90.27000
0.50600	-1.80400	90.27000
0.50800	-1.71380	90.45000
0.51000	0.00000	0.00000
0.51200	-1.62360	90.45000
0.51400	-1.62360	90.45000
0.51600	-1.62360	90.36000
0.51800	-1.71380	90.36000
0.52000	-1.80400	90.45000
0.52200	-1.62360	90.27000
0.52400	0.00000	0.00000
0.52600	-1.62360	90.27000
0.52800	-1.53340	90.27000
0.53000	-1.53340	90.27000
0.53200	-1.62360	90.27000
0.53400	-1.62360	90.27000
0.53600	-1.71380	90.27000
0.53800	0.00000	0.00000
0.54000	-1.89420	90.27000
0.54200	-1.89420	90.18000
0.54400	-1.98440	90.09000
0.54600	-1.98440	90.00000
0.54800	-2.16480	90.00000
0.55000	-2.25500	90.09000
0.55200	0.00000	0.00000
0.55400	-2.16480	90.00000
0.55600	-2.16480	90.09000
0.55800	-2.07460	90.00000
0.56000	-2.16480	89.91000
0.56200	-2.16480	90.00000
0.56400	-1.98440	90.00000
0.56600	-2.07460	90.00000
0.56800	0.00000	0.00000
0.57000	-2.07460	90.09000
0.57200	-2.07460	90.09000
0.57400	-2.16480	90.00000
0.57600	-1.98440	90.00000
0.57800	-1.89420	89.82000
0.58000	0.00000	0.00000
0.58200	-1.80400	89.82000
0.58400	-1.71380	89.82000
0.58600	-1.71380	89.82000
0.58800	-1.71380	89.82000
0.59000	-1.71380	89.82000
0.59200	-1.71380	89.73000
0.59400	0.00000	0.00000
0.59600	-1.71380	89.73000
0.59800	-1.62360	89.73000
0.60000	-1.53340	89.73000
0.60200	-1.44320	89.82000
0.60400	-1.44320	89.82000
0.60600	-1.44320	89.82000
0.60800	0.00000	0.00000
0.61000	-1.35300	89.73000
0.61200	-1.35300	89.73000
0.61400	-1.26280	89.73000
0.61600	-1.26280	89.73000
0.61800	-1.26280	89.73000
0.62000	-1.26280	89.73000
0.62200	0.00000	0.00000
0.62400	-1.35300	89.73000
0.62600	-1.44320	89.82000
0.62800	-1.44320	89.73000
0.63000	-1.44320	89.82000
0.63200	-1.53340	89.82000
0.63400	-1.62360	89.82000
0.63600	0.00000	0.00000
0.63800	-1.62360	89.82000
0.64000	-1.62360	89.91000
0.64200	-1.62360	89.91000
0.64400	-1.71380	89.73000
0.64600	-1.71380	89.82000
0.64800	-1.71380	89.91000
0.65000	-1.71380	89.82000
0.65200	-1.89420	89.82000
0.65400	-1.98440	89.73000
0.65600	0.00000	0.00000
0.65800	-1.98440	89.82000
0.66000	-1.89420	89.73000
0.66200	-1.98440	89.82000
0.66400	-1.89420	89.82000
0.66600	-1.98440	89.91000
0.66800	-2.16480	89.91000
0.67000	0.00000	0.00000
0.67200	-2.07460	90.00000
0.67400	-2.25500	90.00000
0.67600	-2.16480	90.09000
0.67800	-2.25500	90.00000
0.68000	-2.16480	90.00000
0.68200	-2.52560	89.91000
0.68400	0.00000	0.00000
0.68600	-2.61580	90.00000
0.68800	-2.61580	90.00000
0.69000	-2.79620	90.09000
0.69200	0.00000	0.00000
0.69400	-2.79620	90.09000
0.69600	-2.88640	90.00000
0.69800	0.00000	0.00000
0.70000	-2.88640	90.09000
0.70200	-2.97660	90.09000
0.70400	-3.15700	90.09000
0.70600	-3.24720	89.91000
0.70800	-3.33740	89.91000
0.71000	-3.42760	89.91000
0.71200	0.00000	0.00000
0.71400	-3.42760	90.00000
0.71600	-3.51780	89.91000
0.71800	-3.51780	89.82000
0.72000	-3.42760	89.91000
0.72200	-3.42760	89.82000
0.72400	-3.33740	89.82000
0.72600	0.00000	0.00000
0.72800	-3.24720	89.82000
0.73000	-3.15700	89.82000
0.73200	-3.15700	89.82000
0.73400	-3.15700	89.82000
0.73600	-3.15700	89.91000
0.73800	-2.97660	89.64000
0.74000	0.00000	0.00000
0.74200	-2.97660	89.64000
0.74400	-2.97660	89.73000
0.74600	-2.88640	89.73000
0.74800	-2.97660	89.73000
0.75000	-2.97660	89.91000
0.75200	-2.97660	89.73000
0.75400	0.00000	0.00000
0.75600	-2.79620	89.73000
0.75800	-2.79620	89.73000
0.76000	-2.70600	89.73000
0.76200	-2.70600	89.82000
0.76400	-2.79620	89.82000
0.76600	-2.70600	89.73000
0.76800	0.00000	0.00000
0.77000	-2.52560	89.73000
0.77200	-2.52560	89.73000
0.77400	-2.43540	89.82000
0.77600	-2.34520	89.91000
0.77800	-2.34520	89.91000
0.78000	-2.25500	89.91000
0.78200	0.00000	0.00000
0.78400	-2.34520	89.91000
0.78600	-2.25500	89.91000
0.78800	-2.16480	89.91000
0.79000	-2.25500	89.91000
0.79200	-2.25500	89.91000
0.79400	-2.16480	90.00000
0.79600	0.00000	0.00000
0.79800	-2.07460	90.09000
0.80000	-2.07460	90.09000
0.80200	-2.07460	90.00000
0.80400	-2.07460	90.00000
0.80600	-2.07460	89.91000
0.80800	-1.98440	89.91000
0.81000	0.00000	0.00000
0.81200	-1.98440	89.91000
0.81400	-1.98440	89.91000
0.81600	-1.98440	89.91000
0.81800	0.00000	0.00000
0.82000	-1.89420	89.91000
0.82200	-1.98440	90.00000
0.82400	0.00000	0.00000
0.82600	-2.07460	90.09000
0.82800	-2.07460	90.09000
0.83000	-1.98440	90.00000
0.83200	-2.07460	89.91000
0.83400	-2.16480	90.09000
0.83600	-2.16480	90.00000
0.83800	0.00000	0.00000
0.84000	-2.25500	90.00000
0.84200	-2.25500	90.00000
0.84400	-2.34520	89.91000
0.84600	-2.25500	89.91000
0.84800	-2.25500	89.91000
0.85000	-2.34520	89.91000
0.85200	0.00000	0.00000
0.85400	-2.43540	89.91000
0.85600	-2.52560	89.91000
0.85800	-2.61580	89.91000
0.86000	-2.52560	90.00000
0.86200	-2.61580	89.91000
0.86400	-2.61580	89.82000
0.86600	0.00000	0.00000
0.86800	-2.61580	89.91000
0.87000	-2.61580	89.91000
0.87200	-2.52560	89.73000
0.87400	-2.52560	89.64000
0.87600	-2.43540	89.82000
0.87800	-2.43540	89.91000
0.88000	0.00000	0.00000
0.88200	-2.52560	89.91000
0.88400	-2.61580	89.91000
0.88600	-2.52560	89.82000
0.88800	-2.43540	89.82000
0.89000	-2.43540	89.82000
0.89200	-2.34520	89.73000
0.89400	0.00000	0.00000
0.89600	-2.25500	89.64000
0.89800	-2.16480	89.73000
0.90000	-2.16480	89.73000
0.90200	-2.16480	89.64000
0.90400	-2.16480	89.64000
0.90600	-2.43540	89.73000
0.90800	0.00000	0.00000
0.91000	-2.43540	89.82000
0.91200	-2.34520	89.82000
0.91400	-2.43540	89.82000
0.91600	-2.43540	89.73000
0.91800	-2.52560	89.64000
0.92000	-2.52560	89.73000
0.92200	-2.43540	89.82000
0.92400	0.00000	0.00000
0.92600	-2.52560	89.82000
0.92800	-2.43540	89.82000
0.93000	-2.52560	89.73000
0.93200	-2.52560	89.73000
0.93400	-2.43540	89.64000
0.93600	0.00000	0.00000
0.93800	-2.34520	89.55000
0.94000	-2.34520	89.64000
0.94200	-2.43540	89.73000
0.94400	0.00000	0.00000
0.94600	-2.34520	89.73000
0.94800	-2.16480	89.73000
0.95000	0.00000	0.00000
0.95200	-2.07460	89.73000
0.95400	-1.98440	89.73000
0.95600	-1.89420	89.82000
0.95800	-1.98440	89.82000
0.96000	-1.98440	89.64000
0.96200	-1.98440	89.73000
0.96400	0.00000	0.00000
0.96600	-1.98440	89.82000
0.96800	-1.89420	89.73000
0.97000	-1.89420	89.73000
0.97200	-1.98440	89.73000
0.97400	-1.98440	89.73000
0.97600	-1.98440	89.82000
0.97800	0.00000	0.00000
0.98000	-1.98440	89.73000
0.98200	-1.98440	89.64000
0.98400	-1.98440	89.73000
0.98600	-1.98440	89.82000
0.98800	-2.16480	89.73000
0.99000	-2.25500	89.91000
0.99200	0.00000	0.00000
0.99400	-2.34520	89.91000
0.99600	-2.43540	89.82000
0.99800	-2.34520	89.82000
1.00000	-2.43540	89.91000
1.00200	-2.43540	89.91000
1.00400	-2.61580	89.82000
1.00600	0.00000	0.00000
1.00800	-2.70600	89.91000
1.01000	-2.70600	89.73000
1.01200	-2.70600	89.82000
1.01400	-2.79620	89.82000
1.01600	-2.88640	89.91000
1.01800	-2.88640	89.91000
1.02000	0.00000	0.00000
1.02200	-2.79620	89.91000
1.02400	-2.88640	89.82000
1.02600	-2.97660	89.82000
1.02800	-2.88640	89.82000
1.03000	-2.88640	89.91000
1.03200	-2.88640	89.91000
1.03400	-2.88640	89.82000
1.03600	-2.88640	89.82000
1.03800	-3.06680	89.82000
1.04000	0.00000	0.00000
1.04200	-2.97660	89.91000
1.04400	-2.97660	89.91000
1.04600	-2.88640	90.00000
1.04800	-2.79620	90.00000
1.05000	-2.88640	89.91000
1.05200	-2.79620	89.91000
1.05400	0.00000	0.00000
1.05600	-2.79620	90.00000
1.05800	-2.88640	90.00000
1.06000	-2.88640	89.91000
1.06200	-2.79620	90.09000
1.06400	-2.79620	90.00000
1.06600	-2.79620	89.91000
1.06800	0.00000	0.00000
1.07000	-2.88640	89.91000
1.07200	-2.88640	90.00000
1.07400	-2.79620	89.91000
1.07600	-2.79620	89.91000
1.07800	-2.61580	90.00000
1.08000	-2.61580	90.09000
1.08200	0.00000	0.00000
1.08400	-2.61580	90.18000
1.08600	-2.61580	90.00000
1.08800	-2.70600	90.00000
1.09000	-2.61580	90.00000
1.09200	-2.61580	90.00000
1.09400	-2.61580	90.09000
1.09600	0.00000	0.00000
1.09800	-2.70600	90.00000
1.10000	-2.70600	90.00000
1.10200	-2.61580	89.91000
1.10400	-2.52560	90.00000
1.10600	-2.52560	90.09000
1.10800	-2.61580	90.00000
1.11000	-2.61580	89.91000
1.11200	0.00000	0.00000
1.11400	-2.61580	89.91000
1.11600	-2.70600	89.91000
1.11800	-2.70600	89.91000
1.12000	-2.70600	90.00000
1.12200	-2.52560	90.00000
1.12400	0.00000	0.00000
1.12600	-2.43540	90.00000
1.12800	-2.61580	90.00000
1.13000	-2.70600	90.00000
1.13200	-2.79620	89.91000
1.13400	-2.88640	89.91000
1.13600	-2.88640	89.91000
1.13800	0.00000	0.00000
1.14000	-2.88640	90.00000
1.14200	-2.97660	89.91000
1.14400	-2.88640	89.91000
1.14600	0.00000	0.00000
1.14800	-2.88640	89.91000
1.15000	-2.79620	90.00000
1.15200	0.00000	0.00000
1.15400	-2.79620	90.09000
1.15600	-2.70600	90.00000
1.15800	-2.79620	90.00000
1.16000	-2.88640	90.00000
1.16200	-2.88640	89.91000
1.16400	-2.79620	89.91000
1.16600	0.00000	0.00000
1.16800	-2.70600	89.91000
1.17000	-2.70600	89.91000
1.17200	-2.70600	89.91000
1.17400	-2.70600	89.82000
1.17600	-2.79620	89.91000
1.17800	-2.79620	90.00000
1.18000	0.00000	0.00000
1.18200	-2.79620	89.91000
1.18400	-2.97660	89.91000
1.18600	-2.97660	90.00000
1.18800	-2.97660	89.91000
1.19000	-3.06680	89.82000
1.19200	-3.06680	89.73000
1.19400	0.00000	0.00000
1.19600	-3.06680	89.64000
1.19800	-3.15700	89.73000
1.20000	-3.33740	89.82000
1.20200	-3.33740	89.91000
1.20400	-3.42760	89.82000
1.20600	-3.42760	89.82000
1.20800	0.00000	0.00000
1.21000	-3.51780	90.00000
1.21200	-3.60800	90.00000
1.21400	-3.60800	89.91000
1.21600	-3.60800	90.00000
1.21800	-3.69820	90.00000
1.22000	-3.69820	90.09000
1.22200	0.00000	0.00000
1.22400	-3.78840	90.00000
1.22600	-3.69820	89.91000
1.22800	-3.78840	89.91000
1.23000	-3.78840	90.00000
1.23200	-3.60800	90.00000
1.23400	-3.51780	89.91000
1.23600	0.00000	0.00000
1.23800	-3.51780	89.82000
1.24000	-3.42760	89.82000
1.24200	-3.33740	89.91000
1.24400	-3.24720	89.82000
1.24600	-3.15700	89.91000
1.24800	-3.06680	90.00000
1.25000	0.00000	0.00000
1.25200	-2.97660	89.91000
1.25400	-3.06680	89.91000
1.25600	-2.97660	89.91000
1.25800	-2.79620	89.91000
1.26000	-2.88640	89.91000
1.26200	-2.70600	90.00000
1.26400	0.00000	0.00000
1.26600	-2.70600	89.91000
1.26800	-2.79620	90.00000
1.27000	-2.79620	89.91000
1.27200	-2.70600	89.82000
1.27400	-2.61580	89.91000
1.27600	-2.61580	89.91000
1.27800	0.00000	0.00000
1.28000	-2.70600	89.91000
1.28200	-2.88640	90.00000
1.28400	-2.88640	90.00000
1.28600	-2.97660	90.00000
1.28800	-3.06680	90.00000
1.29000	-2.97660	89.82000
1.29200	0.00000	0.00000
1.29400	-3.06680	89.82000
1.29600	-3.06680	89.82000
1.29800	-3.06680	89.91000
1.30000	-3.24720	89.91000
1.30200	-3.24720	89.73000
1.30400	-3.24720	89.91000
1.30600	0.00000	0.00000
1.30800	-3.24720	89.91000
1.31000	-3.33740	89.91000
1.31200	-3.15700	89.91000
1.31400	-3.15700	89.91000
1.31600	-3.15700	89.91000
1.31800	-3.15700	89.82000
1.32000	0.00000	0.00000
1.32200	-3.24720	89.91000
1.32400	-3.15700	89.91000
1.32600	-3.06680	89.91000
1.32800	-3.06680	89.91000
1.33000	-3.06680	89.91000
1.33200	-2.97660	89.91000
1.33400	0.00000	0.00000
1.33600	-2.97660	89.91000
1.33800	-2.88640	89.91000
1.34000	-2.88640	89.91000
1.34200	-2.97660	89.82000
1.34400	-2.88640	89.82000
1.34600	-2.88640	89.91000
1.34800	0.00000	0.00000
1.35000	-2.88640	89.82000
1.35200	-2.88640	89.82000
1.35400	-2.97660	89.91000
1.35600	0.00000	0.00000
1.35800	-3.06680	89.82000
1.36000	-2.88640	0.00000
1.36200	0.00000	0.00000
1.36400	-2.88640	89.82000
1.36600	-2.88640	89.82000
1.36800	-2.97660	89.91000
1.37000	-3.06680	89.91000
1.37200	-3.06680	89.91000
1.37400	-3.06680	89.82000
1.37600	0.00000	0.00000
1.37800	-2.97660	89.91000
1.38000	-2.97660	89.91000
1.38200	-2.97660	89.82000
1.38400	-3.06680	89.91000
1.38600	-2.97660	90.00000
1.38800	-2.97660	90.00000
1.39000	0.00000	0.00000
1.39200	-3.06680	89.91000
1.39400	-3.06680	90.00000
1.39600	-2.97660	90.00000
1.39800	-2.97660	90.00000
1.40000	-2.97660	90.00000
1.40200	-2.88640	89.91000
1.40400	0.00000	0.00000
1.40600	-2.79620	90.00000
1.40800	-2.79620	90.00000
1.41000	-2.79620	90.00000
1.41200	-2.88640	90.00000
1.41400	-2.88640	90.00000
1.41600	-2.88640	90.18000
1.41800	0.00000	0.00000
1.42000	-2.88640	90.09000
1.42200	-2.88640	90.09000
1.42400	-2.97660	90.00000
1.42600	-2.88640	90.00000
1.42800	-2.88640	90.09000
1.43000	-2.88640	90.00000
1.43200	0.00000	0.00000
1.43400	-2.79620	89.91000
1.43600	-2.79620	89.91000
1.43800	-2.70600	89.91000
1.44000	-2.70600	90.00000
1.44200	-2.79620	90.00000
1.44400	-2.70600	89.91000
1.44600	0.00000	0.00000
1.44800	-2.52560	89.82000
1.45000	-2.52560	89.82000
1.45200	-2.34520	89.91000
1.45400	-2.34520	89.91000
1.45600	-2.25500	89.91000
1.45800	-2.34520	89.82000
1.46000	0.00000	0.00000
1.46200	-2.34520	89.82000
1.46400	-2.25500	89.91000
1.46600	-2.25500	89.82000
1.46800	-2.34520	89.91000
1.47000	-2.34520	89.82000
1.47200	-2.34520	89.82000
1.47400	0.00000	0.00000
1.47600	-2.34520	89.82000
1.47800	-2.34520	89.82000
1.48000	-2.25500	89.82000
1.48200	-2.25500	89.82000
1.48400	-2.25500	89.91000
1.48600	-2.43540	89.82000
1.48800	0.00000	0.00000
1.49000	-2.43540	89.82000
1.49200	-2.52560	89.82000
1.49400	-2.52560	89.73000
1.49600	-2.43540	89.82000
1.49800	-2.52560	89.82000
1.50000	-2.61580	89.91000
1.50200	0.00000	0.00000
1.50400	-2.70600	90.00000
1.50600	-2.70600	89.91000
1.50800	-2.70600	89.91000
1.51000	-2.88640	89.82000
1.51200	-2.88640	89.82000
1.51400	-2.97660	0.00000
1.51600	0.00000	0.00000
1.51800	-3.06680	89.73000
1.52000	-3.06680	89.82000
1.52200	-2.97660	89.82000
1.52400	-2.88640	89.73000
1.52600	-2.97660	89.82000
1.52800	-2.97660	89.82000
1.53000	0.00000	0.00000
1.53200	-2.97660	89.91000
1.53400	-3.06680	89.91000
1.53600	-2.97660	89.82000
1.53800	-2.88640	89.91000
1.54000	-2.88640	89.73000
1.54200	-2.97660	89.73000
1.54400	0.00000	0.00000
1.54600	-2.88640	89.73000
1.54800	-2.97660	89.82000
1.55000	-2.97660	89.82000
1.55200	-2.97660	89.82000
1.55400	-2.97660	89.91000
1.55600	-2.88640	89.91000
1.55800	0.00000	0.00000
1.56000	-2.88640	89.91000
1.56200	-2.97660	90.00000
1.56400	-3.06680	89.91000
1.56600	-2.97660	90.00000
1.56800	-2.88640	89.91000
1.57000	-2.88640	89.91000
1.57200	0.00000	0.00000
1.57400	-2.97660	90.00000
1.57600	-2.88640	89.82000
1.57800	-3.06680	89.82000
1.58000	-2.97660	89.91000
1.58200	-2.88640	89.82000
1.58400	-2.79620	89.82000
1.58600	0.00000	0.00000
1.58800	-2.70600	89.82000
1.59000	-2.79620	89.82000
1.59200	-2.88640	89.82000
1.59400	-2.79620	89.91000
1.59600	-2.79620	89.91000
1.59800	-2.70600	89.91000
1.60000	0.00000	0.00000
1.60200	-2.70600	89.82000
1.60400	-2.70600	89.82000
1.60600	-2.70600	89.82000
1.60800	-2.61580	89.91000
1.61000	-2.70600	89.91000
1.61200	-2.52560	89.82000
1.61400	0.00000	0.00000
1.61600	-2.43540	89.82000
1.61800	-2.43540	89.73000
1.62000	-2.52560	89.73000
1.62200	-2.43540	89.82000
1.62400	-2.52560	89.82000
1.62600	-2.61580	89.91000
1.62800	0.00000	0.00000
1.63000	-2.70600	89.91000
1.63200	-2.79620	89.82000
1.63400	-2.79620	89.82000
1.63600	-2.61580	89.91000
1.63800	-2.61580	89.82000
1.64000	-2.79620	89.82000
1.64200	0.00000	0.00000
1.64400	-2.88640	89.82000
1.64600	-2.88640	89.82000
1.64800	0.00000	0.00000
1.65000	-2.97660	89.82000
1.65200	-2.88640	89.73000
1.65400	0.00000	0.00000
1.65600	-2.97660	89.64000
1.65800	-3.06680	89.73000
1.66000	-3.06680	89.64000
1.66200	-2.97660	89.73000
1.66400	-2.97660	89.73000
1.66600	-2.97660	89.82000
1.66800	0.00000	0.00000
1.67000	-2.88640	89.73000
1.67200	-2.79620	89.82000
1.67400	-2.88640	89.73000
1.67600	-2.88640	89.82000
1.67800	-2.88640	89.82000
1.68000	-2.97660	89.91000
1.68200	0.00000	0.00000
1.68400	-3.06680	89.82000
1.68600	-3.06680	89.82000
1.68800	-3.06680	89.91000
1.69000	-3.15700	89.91000
1.69200	-3.06680	89.91000
1.69400	-2.79620	89.91000
1.69600	0.00000	0.00000
1.69800	-2.79620	89.82000
1.70000	-2.79620	89.73000
1.70200	-2.79620	89.73000
1.70400	-2.70600	89.73000
1.70600	-2.70600	89.91000
1.70800	-2.70600	90.00000
1.71000	0.00000	0.00000
1.71200	-2.70600	90.00000
1.71400	-2.70600	90.00000
1.71600	-2.61580	90.09000
1.71800	-2.61580	90.09000
1.72000	-2.61580	90.00000
1.72200	-2.70600	90.00000
1.72400	0.00000	0.00000
1.72600	-2.70600	90.00000
1.72800	-2.52560	90.00000
1.73000	-2.52560	90.00000
1.73200	-2.52560	90.00000
1.73400	-2.43540	89.91000
1.73600	-2.52560	90.09000
1.73800	0.00000	0.00000
1.74000	-2.52560	90.00000
1.74200	-2.43540	90.09000
1.74400	-2.52560	90.09000
1.74600	-2.61580	90.00000
1.74800	-2.61580	90.00000
1.75000	-2.61580	90.00000
1.75400	-2.61580	89.91000
1.75600	-2.61580	90.00000
1.75800	-2.61580	90.00000
1.76000	-2.79620	89.91000
1.76200	-2.88640	89.91000
1.76400	-2.88640	89.82000
1.76600	0.00000	0.00000
1.76800	-2.88640	89.82000
1.77000	-2.88640	89.82000
1.77200	-2.88640	90.00000
1.77400	-2.88640	89.91000
1.77600	-2.88640	89.91000
1.77800	-3.06680	89.82000
1.78000	0.00000	0.00000
1.78200	-3.15700	89.91000
1.78400	-3.15700	89.91000
1.78600	-3.15700	89.91000
1.78800	-2.97660	89.91000
1.79000	-2.88640	89.91000
1.79200	-2.88640	89.82000
1.79400	0.00000	0.00000
1.79600	-2.88640	89.82000
1.79800	-2.88640	89.82000
1.80000	-2.97660	89.82000
1.80200	-2.97660	89.82000
1.80400	-2.88640	89.82000
1.80600	-2.88640	89.73000
1.80800	0.00000	0.00000
1.81000	-2.88640	89.73000
1.81200	-2.88640	89.82000
1.81400	-2.97660	89.82000
1.81600	-3.06680	89.91000
1.81800	-2.97660	90.00000
1.82000	-2.88640	89.91000
1.82200	0.00000	0.00000
1.82400	-2.88640	89.91000
1.82600	-2.97660	89.91000
1.82800	-2.88640	89.82000
1.83000	-2.88640	89.82000
1.83200	-2.97660	89.82000
1.83400	-3.06680	89.91000
1.83600	0.00000	0.00000
1.83800	-3.06680	89.91000
1.84000	-2.97660	89.91000
1.84200	-2.97660	89.82000
1.84400	-2.97660	89.91000
1.84600	-3.06680	89.91000
1.84800	-3.24720	89.91000
1.85000	0.00000	0.00000
1.85200	-3.15700	89.91000
1.85400	-3.15700	89.82000
1.85600	-3.15700	89.82000
1.85800	-3.15700	89.91000
1.86000	-3.15700	89.82000
1.86200	-3.33740	89.82000
1.86400	0.00000	0.00000
1.86600	-3.24720	89.82000
1.86800	-3.33740	89.91000
1.87000	-3.42760	90.09000
1.87200	-3.42760	90.00000
1.87400	-3.33740	90.00000
1.87600	-3.33740	89.91000
1.87800	0.00000	0.00000
1.88000	-3.24720	90.00000
1.88200	-3.24720	90.09000
1.88400	-3.15700	90.00000
1.88600	-3.06680	89.91000
1.88800	-3.06680	90.00000
1.89000	-3.06680	90.00000
1.89200	0.00000	0.00000
1.89400	-3.06680	89.91000
1.89600	-3.06680	89.82000
1.89800	-2.97660	89.91000
1.90000	-3.06680	89.82000
1.90200	-3.06680	89.91000
1.90400	-2.79620	90.00000
1.90600	0.00000	0.00000
1.90800	-2.88640	90.00000
1.91000	-2.79620	90.09000
1.91200	-2.88640	90.09000
1.91400	-2.79620	90.09000
1.91600	-2.70600	90.09000
1.91800	-2.79620	90.00000
1.92000	0.00000	0.00000
1.92200	-2.88640	90.00000
1.92400	-2.88640	90.00000
1.92600	-2.97660	90.00000
1.92800	-2.88640	89.91000
1.93000	-2.88640	89.91000
1.93200	-2.79620	89.91000
1.93400	0.00000	0.00000
1.93600	-2.79620	90.00000
1.93800	-2.88640	90.00000
1.94000	-2.88640	89.91000
1.94200	-2.88640	89.91000
1.94400	-2.88640	89.82000
1.94600	-2.97660	89.82000
1.94800	0.00000	0.00000
1.95000	-2.88640	89.73000
1.95200	-2.97660	89.82000
1.95400	-3.06680	89.91000
1.95600	-2.97660	89.82000
1.95800	-2.97660	89.73000
1.96000	-2.79620	89.82000
1.96200	0.00000	0.00000
1.96400	-2.79620	89.73000
1.96600	-2.70600	89.73000
1.96800	-2.70600	89.82000
1.97000	-2.70600	89.91000
1.97200	-2.70600	89.82000
1.97400	-2.70600	89.82000
1.97600	0.00000	0.00000
1.97800	-2.61580	89.82000
1.98000	-2.61580	89.73000
1.98200	-2.52560	89.73000
1.98400	-2.43540	89.73000
1.98600	-2.43540	89.73000
1.98800	-2.34520	89.64000
1.99000	0.00000	0.00000
1.99200	-2.52560	89.64000
1.99400	-2.52560	89.64000
1.99600	-2.52560	89.82000
1.99800	-2.43540	89.82000
2.00000	-2.43540	89.73000
2.00200	-2.43540	89.82000
2.00400	0.00000	0.00000
2.00600	-2.34520	89.82000
2.00800	-2.43540	89.91000
2.01000	-2.34520	89.82000
2.01200	-2.34520	89.82000
2.01400	-2.34520	89.82000
2.01600	-2.52560	89.82000
2.01800	0.00000	0.00000
2.02000	-2.61580	89.91000
2.02200	-2.70600	89.82000
2.02400	-2.79620	89.91000
2.02600	-2.88640	90.00000
2.02800	-2.88640	90.00000
2.03000	-2.88640	89.82000
2.03200	-2.79620	89.91000
2.03400	-2.70600	89.91000
2.03600	-2.79620	89.91000
2.03800	0.00000	0.00000
2.04000	-2.79620	89.82000
2.04200	-2.79620	89.82000
2.04400	-2.70600	89.73000
2.04600	-2.70600	89.82000
2.04800	-2.79620	89.91000
2.05000	-2.70600	90.00000
2.05200	0.00000	0.00000
2.05400	-2.70600	89.91000
2.05600	-2.70600	89.91000
2.05800	-2.70600	89.91000
2.06000	-2.79620	89.91000
2.06200	-2.88640	89.91000
2.06400	-2.79620	89.91000
2.06600	0.00000	0.00000
2.06800	-2.79620	90.00000
2.07000	-2.70600	90.00000
2.07200	0.00000	0.00000
2.07400	-2.70600	90.00000
2.07600	-2.70600	90.00000
2.07800	-2.61580	90.00000
2.08000	0.00000	0.00000
2.08200	-2.61580	89.91000
2.08400	-2.52560	89.91000
2.08600	-2.61580	90.00000
2.08800	-2.52560	90.09000
2.09000	-2.61580	90.09000
2.09200	-2.61580	90.00000
2.09400	0.00000	0.00000
2.09600	-2.70600	90.00000
2.09800	-2.70600	90.00000
2.10000	-2.70600	90.00000
2.10200	-2.70600	90.00000
2.10400	-2.79620	89.91000
2.10600	-2.79620	90.00000
2.10800	0.00000	0.00000
2.11000	-2.79620	90.00000
2.11200	-2.88640	90.00000
2.11400	-2.79620	89.91000
2.11600	-2.88640	89.91000
2.11800	-2.97660	89.91000
2.12000	-2.88640	89.91000
2.12200	0.00000	0.00000
2.12400	-2.97660	89.82000
2.12600	-2.88640	89.91000
2.12800	-2.88640	89.91000
2.13000	-2.88640	89.91000
2.13200	-2.88640	89.91000
2.13400	-2.79620	89.91000
2.13600	0.00000	0.00000
2.13800	-2.88640	89.82000
2.14000	-2.97660	89.82000
2.14200	-2.88640	89.91000
2.14400	-2.79620	89.91000
2.14600	-2.88640	89.91000
2.14800	-2.79620	89.91000
2.15000	0.00000	0.00000
2.15200	-2.70600	90.00000
2.15400	-2.61580	89.91000
2.15600	-2.52560	89.82000
2.15800	-2.70600	89.73000
2.16000	-2.70600	89.82000
2.16200	-2.79620	89.91000
2.16400	0.00000	0.00000
2.16600	-2.88640	89.82000
2.16800	-2.70600	89.64000
2.17000	-2.70600	89.73000
2.17200	-2.61580	89.82000
2.17400	-2.61580	89.91000
2.17600	-2.52560	90.00000
2.17800	0.00000	0.00000
2.18000	-2.61580	89.91000
2.18200	-2.43540	89.91000
2.18400	-2.43540	89.91000
2.18600	-2.43540	89.91000
2.18800	-2.34520	90.00000
2.19000	-2.43540	90.09000
2.19200	0.00000	0.00000
2.19400	-2.43540	90.09000
2.19600	-2.43540	90.00000
2.19800	-2.43540	90.09000
2.20000	-2.43540	90.00000
2.20200	-2.34520	89.91000
2.20400	-2.34520	89.91000
2.20600	0.00000	0.00000
2.20800	-2.43540	90.00000
2.21000	-2.43540	90.00000
2.21200	-2.34520	90.00000
2.21400	-2.43540	90.00000
2.21600	-2.34520	90.00000
2.21800	-2.34520	90.00000
2.22000	0.00000	0.00000
2.22200	-2.34520	90.09000
2.22400	-2.34520	90.09000
2.22600	-2.43540	90.09000
2.22800	-2.43540	90.00000
2.23000	-2.52560	90.09000
2.23200	-2.52560	90.09000
2.23400	0.00000	0.00000
2.23600	-2.70600	90.09000
2.23800	-2.70600	90.00000
2.24000	-2.52560	89.91000
2.24200	-2.52560	90.00000
2.24400	-2.43540	90.00000
2.24600	-2.34520	89.82000
2.24800	0.00000	0.00000
2.25000	-2.52560	89.73000
2.25200	-2.52560	89.82000
2.25400	-2.52560	89.82000
2.25600	-2.43540	89.82000
2.25800	-2.52560	89.82000
2.26000	-2.61580	89.73000
2.26200	0.00000	0.00000
2.26400	-2.70600	89.73000
2.26600	-2.52560	89.82000
2.26800	-2.52560	89.82000
2.27000	-2.70600	89.82000
2.27200	-2.61580	89.82000
2.27400	-2.70600	89.73000
2.27600	0.00000	0.00000
2.27800	-2.70600	89.82000
2.28000	-2.88640	89.82000
2.28200	-2.79620	89.82000
2.28400	-2.79620	89.91000
2.28600	-2.88640	89.73000
2.28800	-2.88640	89.73000
2.29000	0.00000	0.00000
2.29200	-2.97660	89.73000
2.29400	-2.97660	89.73000
2.29600	-2.88640	89.64000
2.29800	-2.88640	89.73000
2.30000	-2.79620	89.73000
2.30200	-2.97660	0.00000
2.30400	0.00000	0.00000
2.30600	-2.97660	89.64000
2.30800	-2.88640	89.73000
2.31000	-2.97660	89.64000
2.31200	-2.88640	89.73000
2.31400	-2.88640	89.82000
2.31600	-2.88640	89.82000
2.31800	0.00000	0.00000
2.32000	-2.79620	89.82000
2.32200	-2.88640	89.73000
2.32400	-2.79620	89.73000
2.32600	-2.79620	89.82000
2.32800	-2.88640	89.82000
2.33000	-2.88640	89.82000
2.33200	0.00000	0.00000
2.33400	-2.88640	89.91000
2.33600	-2.79620	90.00000
2.33800	-2.70600	90.00000
2.34000	-2.70600	89.91000
2.34200	-2.70600	89.91000
2.34400	-2.79620	89.91000
2.34600	0.00000	0.00000
2.34800	-2.70600	90.00000
2.35000	-2.70600	90.09000
2.35200	-2.79620	90.18000
2.35400	-2.79620	90.09000
2.35600	-2.70600	90.09000
2.35800	-2.70600	89.91000
2.36000	0.00000	0.00000
2.36200	-2.70600	90.00000
2.36400	-2.70600	90.00000
2.36600	-2.70600	90.09000
2.36800	-2.88640	90.09000
2.37000	-2.88640	90.09000
2.37200	-2.79620	90.09000
2.37400	0.00000	0.00000
2.37600	-2.88640	90.00000
2.37800	-2.88640	90.00000
2.38000	-2.88640	90.09000
2.38200	-2.79620	90.09000
2.38400	-2.79620	90.09000
2.38600	-2.97660	90.00000
2.38800	0.00000	0.00000
2.39000	-3.15700	90.09000
2.39200	-2.97660	90.00000
2.39400	-2.79620	90.00000
2.39600	-2.97660	90.00000
2.39800	-2.97660	90.00000
2.40000	-3.24720	89.91000
2.40200	0.00000	0.00000
2.40400	-3.15700	90.00000
2.40600	-3.15700	90.00000
2.40800	-3.15700	89.91000
2.41000	-3.15700	89.91000
2.41200	-3.15700	90.00000
2.41400	-2.97660	89.91000
2.41600	0.00000	0.00000
2.41800	-2.88640	89.91000
2.42000	-2.88640	89.82000
2.42200	-2.88640	89.82000
2.42400	-2.79620	89.73000
2.42600	-2.88640	89.64000
2.42800	-2.79620	89.82000
2.43000	0.00000	0.00000
2.43200	-2.79620	89.82000
2.43400	-2.70600	89.82000
2.43600	-2.70600	89.82000
2.43800	-2.70600	89.82000
2.44000	-2.88640	89.82000
2.44200	-2.70600	89.82000
2.44400	0.00000	0.00000
2.44600	-2.70600	89.91000
2.44800	-2.70600	89.91000
2.45000	-2.70600	89.82000
2.45200	-2.61580	89.82000
2.45400	-2.52560	89.91000
2.45600	-2.61580	89.91000
2.45800	0.00000	0.00000
2.46000	-2.61580	89.91000
2.46200	-2.52560	89.91000
2.46400	-2.61580	89.91000
2.46600	-2.61580	89.91000
2.46800	-2.70600	89.91000
2.47000	-2.52560	89.82000
2.47200	0.00000	0.00000
2.47400	-2.43540	89.82000
2.47600	-2.43540	89.91000
2.47800	-2.43540	89.91000
2.48000	-2.43540	90.00000
2.48200	-2.52560	90.00000
2.48400	-2.70600	90.00000
2.48600	0.00000	0.00000
2.48800	-2.70600	90.00000
2.49000	-2.88640	89.91000
2.49200	-2.79620	90.00000
2.49400	-2.79620	90.09000
2.49600	-2.70600	90.00000
2.49800	-2.61580	90.00000
2.50000	0.00000	0.00000
2.50200	-2.70600	90.00000
2.50400	-2.70600	90.09000
2.50600	-2.61580	90.09000
2.50800	-2.79620	90.00000
2.51000	-2.79620	89.91000
2.51200	-2.70600	89.82000
2.51400	0.00000	0.00000
2.51600	-2.61580	89.82000
2.51800	-2.61580	89.91000
2.52000	-2.61580	90.00000
2.52200	-2.61580	90.09000
2.52400	-2.61580	90.09000
2.52600	-2.61580	90.09000
2.52800	0.00000	0.00000
2.53000	-2.70600	90.00000
2.53200	-2.70600	90.00000
2.53400	-2.70600	90.09000
2.53600	-2.70600	90.18000
2.53800	-2.70600	90.18000
2.54000	-2.70600	90.00000
2.54200	0.00000	0.00000
2.54400	-2.79620	90.09000
2.54600	-2.88640	90.00000
2.54800	-2.79620	89.91000
2.55000	-2.79620	89.91000
2.55200	-2.79620	89.91000
2.55400	-2.79620	89.91000
2.55600	0.00000	0.00000
2.55800	-2.88640	89.91000
2.56000	-2.88640	90.00000
2.56200	-2.97660	89.91000
2.56400	-2.97660	89.82000
2.56600	-2.79620	89.73000
2.56800	-2.97660	89.73000
2.57000	0.00000	0.00000
2.57200	0.00000	0.00000
2.57400	0.00000	0.00000
2.57600	-3.06680	89.64000
2.57800	-3.15700	89.73000
2.58000	-3.06680	89.82000
2.58200	-3.06680	89.82000
2.58400	0.00000	0.00000
2.58600	-3.15700	89.73000
2.58800	-3.15700	89.73000
2.59000	-3.06680	89.73000
2.59200	-3.06680	89.73000
2.59400	-3.15700	89.82000
2.59600	-3.15700	89.82000
2.59800	0.00000	0.00000
2.60000	-3.24720	89.82000
2.60200	-3.33740	89.82000
2.60400	-3.33740	89.82000
2.60600	-3.33740	89.82000
2.60800	-3.33740	89.82000
2.61000	-3.42760	89.82000
2.61200	0.00000	0.00000
2.61400	-3.42760	89.82000
2.61600	-3.51780	89.82000
2.61800	-3.51780	89.91000
2.62000	-3.51780	89.82000
2.62200	-3.51780	89.82000
2.62400	0.00000	0.00000
2.62600	0.00000	0.00000
2.62800	-3.42760	89.82000
2.63000	-3.51780	89.82000
2.63200	-3.51780	89.73000
2.63400	-3.51780	89.64000
2.63600	-3.51780	89.64000
2.63800	-3.42760	89.64000
2.64000	0.00000	0.00000
2.64200	-3.42760	89.73000
2.64400	-3.42760	89.82000
2.64600	-3.42760	89.91000
2.64800	-3.51780	89.82000
2.65000	-3.42760	89.82000
2.65200	-3.51780	89.73000
2.65400	-3.42760	89.73000
2.65600	-3.42760	89.73000
2.65800	-3.42760	89.73000
2.66000	-3.33740	89.73000
2.66200	-3.24720	89.73000
2.66400	-3.33740	89.73000
2.66600	0.00000	0.00000
2.66800	-3.33740	89.82000
2.67000	-3.33740	89.91000
2.67200	-3.42760	89.91000
2.67400	-3.33740	89.91000
2.67600	-3.33740	89.82000
2.67800	-3.24720	89.82000
2.68000	0.00000	0.00000
2.68200	-3.33740	89.91000
2.68400	-3.24720	90.00000
2.68600	-3.33740	89.91000
2.68800	-3.33740	89.82000
2.69000	-3.24720	89.91000
2.69200	-3.33740	89.82000
2.69400	0.00000	0.00000
2.69600	-3.24720	89.82000
2.69800	-3.24720	89.82000
2.70000	-3.33740	89.82000
2.70200	-3.33740	89.73000
2.70400	-3.24720	89.91000
2.70600	-3.24720	89.91000
2.70800	0.00000	0.00000
2.71000	-3.24720	89.91000
2.71200	-3.15700	89.91000
2.71400	-3.24720	89.91000
2.71600	-3.24720	89.82000
2.71800	-3.24720	90.00000
2.72000	-3.15700	90.09000
2.72200	0.00000	0.00000
2.72400	-3.06680	90.09000
2.72600	-2.97660	90.00000
2.72800	-2.97660	90.09000
2.73000	-2.88640	90.09000
2.73200	-2.88640	90.09000
2.73400	-2.88640	90.09000
2.73600	0.00000	0.00000
2.73800	-2.88640	90.00000
2.74000	-2.97660	89.91000
2.74200	-2.97660	89.91000
2.74400	-2.88640	89.91000
2.74600	-2.88640	90.00000
2.74800	-2.79620	89.91000
2.75000	0.00000	0.00000
2.75200	-2.70600	89.82000
2.75400	-2.70600	89.82000
2.75600	-2.70600	89.82000
2.75800	-2.70600	89.82000
2.76000	-2.70600	89.82000
2.76200	-2.70600	89.91000
2.76400	0.00000	0.00000
2.76600	-2.79620	90.00000
2.76800	-2.88640	90.00000
2.77000	-2.79620	89.91000
2.77200	-2.79620	89.82000
2.77400	-2.79620	89.91000
2.77600	-2.61580	89.91000
2.77800	0.00000	0.00000
2.78000	-2.61580	89.91000
2.78200	-2.70600	89.91000
2.78400	-2.70600	90.00000
2.78600	-2.70600	89.91000
2.78800	-2.70600	89.82000
2.79000	-2.61580	89.73000
2.79200	0.00000	0.00000
2.79400	-2.70600	89.82000
2.79600	-2.70600	89.82000
2.79800	-2.70600	89.91000
2.80000	-2.70600	89.91000
2.80200	-2.52560	89.91000
2.80400	-2.52560	89.82000
2.80600	0.00000	0.00000
2.80800	-2.61580	89.73000
2.81000	-2.61580	89.73000
2.81200	-2.61580	89.73000
2.81400	-2.61580	89.82000
2.81600	-2.70600	89.82000
2.81800	-2.70600	89.82000
2.82000	0.00000	0.00000
2.82200	-2.70600	89.82000
2.82400	0.00000	0.00000
2.82600	-2.70600	89.82000
2.82800	-2.61580	89.73000
2.83000	-2.70600	89.73000
2.83200	-2.61580	89.64000
2.83400	0.00000	0.00000
2.83600	-2.52560	89.73000
2.83800	-2.61580	89.73000
2.84000	-2.61580	89.82000
2.84200	-2.61580	89.91000
2.84400	-2.70600	90.09000
2.84600	-2.70600	89.91000
2.84800	0.00000	0.00000
2.85000	-2.70600	89.73000
2.85200	-2.70600	89.82000
2.85400	-2.70600	89.82000
2.85600	-2.79620	89.91000
2.85800	-2.79620	90.00000
2.86000	-2.97660	90.09000
2.86200	0.00000	0.00000
2.86400	-2.88640	90.09000
2.86600	-2.97660	90.09000
2.86800	-2.97660	90.00000
2.87000	-2.97660	90.00000
2.87200	-3.15700	89.91000
2.87400	-2.97660	90.00000
2.87600	0.00000	0.00000
2.87800	-2.97660	90.09000
2.88000	-3.06680	90.00000
2.88200	-3.06680	90.00000
2.88400	-3.06680	90.00000
2.88600	-3.24720	89.82000
2.88800	-3.24720	89.91000
2.89000	0.00000	0.00000
2.89200	-3.15700	89.91000
2.89400	-3.06680	89.91000
2.89600	-3.06680	89.91000
2.89800	-3.15700	89.91000
2.90000	-3.15700	89.91000
2.90200	-3.06680	89.91000
2.90400	0.00000	0.00000
2.90600	-3.06680	89.91000
2.90800	-3.06680	90.00000
2.91000	-2.97660	90.00000
2.91200	-3.06680	90.00000
2.91400	-3.06680	90.09000
2.91600	-2.88640	89.91000
2.91800	0.00000	0.00000
2.92000	-2.79620	89.91000
2.92200	-2.79620	90.00000
2.92400	-2.79620	89.91000
2.92600	-2.79620	90.00000
2.92800	-2.79620	90.09000
2.93000	-2.61580	89.91000
2.93200	0.00000	0.00000
2.93400	-2.61580	89.73000
2.93600	-2.79620	89.82000
2.93800	-2.79620	89.91000
2.94000	-2.79620	89.82000
2.94200	-2.70600	89.73000
2.94400	-2.79620	89.82000
2.94600	0.00000	0.00000
2.94800	-2.88640	89.82000
2.95000	-2.88640	89.82000
2.95200	-2.79620	89.73000
2.95400	-2.79620	89.64000
2.95600	-2.79620	89.64000
2.95800	-2.70600	89.73000
2.96000	0.00000	0.00000
2.96200	-2.70600	89.73000
2.96400	-2.79620	89.73000
2.96600	-2.70600	89.73000
2.96800	-2.70600	89.73000
2.97000	-2.70600	89.82000
2.97200	-2.88640	89.82000
2.97400	0.00000	0.00000
2.97600	-2.88640	89.73000
2.97800	-2.88640	89.73000
2.98000	-2.88640	89.73000
2.98200	-2.97660	89.73000
2.98400	-2.97660	89.73000
2.98600	-2.97660	89.73000
2.98800	0.00000	0.00000
2.99000	-2.88640	89.73000
2.99200	-2.79620	89.73000
2.99400	-2.88640	89.82000
2.99600	-2.88640	89.91000
2.99800	-2.97660	89.91000
3.00000	-3.06680	89.91000
3.00200	0.00000	0.00000
3.00400	-3.15700	89.82000
3.00600	-3.15700	89.82000
3.00800	-3.06680	89.82000
3.01000	-2.97660	89.82000
3.01200	-3.15700	89.82000
3.01400	-3.24720	89.73000
3.01600	0.00000	0.00000
3.01800	-3.15700	89.91000
3.02000	-3.15700	89.91000
3.02200	0.00000	0.00000
3.02400	-2.97660	89.91000
3.02600	-2.97660	89.82000
3.02800	-3.06680	90.00000
3.03000	0.00000	0.00000
3.03200	-3.06680	90.00000
3.03400	-2.97660	90.00000
3.03600	-2.97660	90.00000
3.03800	-3.06680	90.00000
3.04000	-3.15700	89.91000
3.04200	-2.97660	89.91000
3.04400	0.00000	0.00000
3.04600	-2.97660	89.82000
3.04800	-2.97660	89.91000
3.05000	-3.06680	89.91000
3.05200	-3.06680	90.00000
3.05400	-3.15700	90.09000
3.05600	-3.15700	90.00000
3.05800	0.00000	0.00000
3.06000	-3.33740	90.00000
3.06200	-3.33740	90.00000
3.06400	-3.24720	90.00000
3.06600	-3.24720	89.82000
3.06800	-3.15700	89.82000
3.07000	-3.15700	89.82000
3.07200	-3.15700	89.82000
3.07400	0.00000	0.00000
3.07600	-3.06680	89.91000
3.07800	-3.06680	89.91000
3.08000	-3.06680	89.82000
3.08200	-3.06680	89.82000
3.08400	-3.06680	89.91000
3.08600	0.00000	0.00000
3.08800	-3.06680	89.91000
3.09000	-2.97660	89.91000
3.09200	-3.06680	89.82000
3.09400	-3.06680	89.73000
3.09600	-3.06680	89.82000
3.09800	-2.97660	89.82000
3.10000	0.00000	0.00000
3.10200	-2.97660	89.82000
3.10400	-2.88640	89.73000
3.10600	-2.79620	89.73000
3.10800	-2.79620	89.73000
3.11000	-2.88640	89.73000
3.11200	-2.97660	89.64000
3.11400	0.00000	0.00000
3.11600	-2.88640	89.73000
3.11800	-2.79620	89.82000
3.12000	-2.79620	89.82000
3.12200	-2.97660	89.82000
3.12400	-2.97660	89.82000
3.12600	-2.88640	89.73000
3.12800	0.00000	0.00000
3.13000	-2.88640	89.73000
3.13200	-2.79620	89.64000
3.13400	-2.70600	89.64000
3.13600	-2.70600	89.73000
3.13800	-2.70600	89.82000
3.14000	-2.70600	89.82000
3.14200	0.00000	0.00000
3.14400	-2.61580	89.73000
3.14600	-2.61580	89.73000
3.14800	-2.52560	89.73000
3.15000	-2.52560	89.73000
3.15200	-2.52560	89.73000
3.15400	-2.79620	89.82000
3.15600	0.00000	0.00000
3.15800	-2.79620	89.82000
3.16000	-2.79620	89.82000
3.16200	-2.61580	89.91000
3.16400	-2.61580	89.73000
3.16600	-2.70600	89.73000
3.16800	-2.70600	90.00000
3.17000	0.00000	0.00000
3.17200	-2.70600	89.91000
3.17400	-2.70600	89.82000
3.17600	-2.79620	89.91000
3.17800	-2.79620	89.91000
3.18000	-2.88640	89.82000
3.18200	-3.06680	89.82000
3.18400	0.00000	0.00000
3.18600	-2.97660	89.82000
3.18800	-3.15700	89.82000
3.19000	-3.15700	89.82000
3.19200	-3.15700	89.82000
3.19400	-3.24720	89.82000
3.19600	-3.24720	89.82000
3.19800	-3.33740	89.82000
3.20000	0.00000	0.00000
3.20200	-3.42760	89.91000
3.20400	-3.33740	89.91000
3.20600	-3.42760	89.91000
3.20800	-3.51780	89.91000
3.21000	-3.33740	89.91000
3.21200	0.00000	0.00000
3.21400	-3.42760	89.91000
3.21600	-3.42760	89.91000
3.21800	-3.51780	89.91000
3.22000	-3.51780	90.00000
3.22200	-3.51780	90.00000
3.22400	-3.51780	90.09000
3.22600	0.00000	0.00000
3.22800	-3.42760	90.00000
3.23000	-3.33740	90.09000
3.23200	-3.42760	90.09000
3.23400	-3.42760	90.00000
3.23600	-3.42760	90.09000
3.23800	-3.15700	90.00000
3.24000	0.00000	0.00000
3.24200	-3.15700	89.91000
3.24400	-3.24720	89.91000
3.24600	-3.15700	90.00000
3.24800	-3.15700	90.00000
3.25000	-3.24720	90.00000
3.25200	-3.06680	90.09000
3.25400	0.00000	0.00000
3.25600	-3.06680	90.00000
3.25800	-3.06680	90.00000
3.26000	-3.15700	90.00000
3.26200	-3.15700	89.82000
3.26400	-3.15700	89.91000
3.26600	-3.24720	90.00000
3.26800	0.00000	0.00000
3.27000	-3.33740	90.00000
3.27200	-3.24720	89.91000
3.27400	-3.24720	89.91000
3.27600	-3.24720	90.00000
3.27800	-3.15700	90.00000
3.28000	-3.15700	90.00000
3.28200	0.00000	0.00000
3.28400	-3.15700	89.91000
3.28600	-3.15700	89.91000
3.28800	-3.15700	89.91000
3.29000	-3.06680	89.82000
3.29200	-3.06680	89.82000
3.29400	-3.06680	89.73000
3.29600	0.00000	0.00000
3.29800	-3.24720	89.82000
3.30000	-3.24720	89.91000
3.30200	-3.33740	89.91000
3.30400	-3.42760	89.82000
3.30600	-3.51780	89.82000
3.30800	-3.42760	89.82000
3.31000	0.00000	0.00000
3.31200	-3.42760	89.82000
3.31400	-3.51780	89.73000
3.31600	-3.42760	89.64000
3.31800	-3.51780	89.64000
3.32000	-3.42760	89.64000
3.32200	-3.33740	89.64000
3.32400	-3.33740	89.64000
3.32600	0.00000	0.00000
3.32800	-3.42760	89.73000
3.33000	-3.42760	89.73000
3.33200	-3.42760	89.73000
3.33400	-3.51780	89.73000
3.33600	-3.51780	89.73000
3.33800	0.00000	0.00000
3.34000	-3.51780	89.64000
3.34200	-3.51780	89.64000
3.34400	-3.60800	89.73000
3.34600	-3.60800	89.73000
3.34800	-3.51780	89.73000
3.35000	-3.60800	89.64000
3.35200	0.00000	0.00000
3.35400	-3.69820	89.73000
3.35600	-3.60800	89.82000
3.35800	-3.51780	89.82000
3.36000	-3.51780	89.82000
3.36200	-3.60800	89.82000
3.36400	-3.60800	89.73000
3.36600	0.00000	0.00000
3.36800	-3.51780	89.82000
3.37000	-3.51780	89.82000
3.37200	-3.51780	89.91000
3.37400	-3.51780	89.91000
3.37600	-3.51780	90.09000
3.37800	-3.51780	90.09000
3.38000	0.00000	0.00000
3.38200	-3.51780	90.00000
3.38400	-3.51780	90.00000
3.38600	-3.42760	90.00000
3.38800	-3.33740	90.00000
3.39000	-3.42760	90.00000
3.39200	0.00000	0.00000
3.39400	0.00000	0.00000
3.39600	-3.69820	90.00000
3.39800	-3.60800	90.09000
3.40000	-3.69820	90.09000
3.40200	-3.69820	90.00000
3.40400	-3.60800	90.09000
3.40600	-3.51780	90.09000
3.40800	0.00000	0.00000
3.41000	-3.51780	90.18000
3.41200	-3.33740	90.09000
3.41400	-3.33740	89.91000
3.41600	-3.33740	90.00000
3.41800	-3.24720	89.91000
3.42000	-3.24720	89.91000
3.42200	0.00000	0.00000
3.42400	-3.24720	89.91000
3.42600	-3.33740	89.91000
3.42800	-3.42760	90.00000
3.43000	-3.33740	89.91000
3.43200	-3.33740	90.00000
3.43400	-3.42760	89.91000
3.43600	0.00000	0.00000
3.43800	-3.24720	89.82000
3.44000	-3.24720	89.91000
3.44200	-3.24720	89.91000
3.44400	-3.15700	89.91000
3.44600	-3.24720	89.82000
3.44800	-3.15700	89.82000
3.45000	-3.15700	89.91000
3.45200	0.00000	0.00000
3.45400	-3.15700	89.82000
3.45600	-3.15700	89.82000
3.45800	-3.06680	89.82000
3.46000	-2.97660	89.82000
3.46200	-3.15700	89.82000
3.46400	0.00000	0.00000
3.46600	-3.15700	89.82000
3.46800	-3.24720	89.82000
3.47000	-3.24720	89.82000
3.47200	-3.33740	89.73000
3.47400	-3.24720	89.82000
3.47600	-3.06680	89.82000
3.47800	0.00000	0.00000
3.48000	-3.15700	89.82000
3.48200	-3.15700	89.82000
3.48400	-3.15700	89.91000
3.48600	-3.15700	89.82000
3.48800	-3.24720	89.82000
3.49000	-3.15700	89.82000
3.49200	0.00000	0.00000
3.49400	-3.06680	89.73000
3.49600	-3.15700	89.64000
3.49800	-3.24720	89.64000
3.50000	-3.24720	89.64000
3.50200	-3.24720	89.55000
3.50400	-3.15700	89.73000
3.50600	0.00000	0.00000
3.50800	-3.15700	89.82000
3.51000	-3.24720	89.91000
3.51200	-3.15700	89.82000
3.51400	-3.15700	89.82000
3.51600	-3.06680	89.73000
3.51800	-3.15700	89.82000
3.52000	0.00000	0.00000
3.52200	-2.97660	89.73000
3.52400	-2.97660	89.82000
3.52600	-3.06680	89.73000
3.52800	-3.06680	89.91000
3.53000	-3.06680	90.00000
3.53200	-3.06680	89.91000
3.53400	0.00000	0.00000
3.53600	-2.97660	89.91000
3.53800	-2.97660	89.91000
3.54000	-2.97660	90.00000
3.54200	-2.88640	89.91000
3.54400	-2.88640	90.00000
3.54600	-2.88640	90.00000
3.54800	0.00000	0.00000
3.55000	-2.88640	89.91000
3.55200	-2.88640	89.91000
3.55400	-2.88640	89.91000
3.55600	-2.88640	90.00000
3.55800	-2.88640	90.00000
3.56000	-3.15700	90.00000
3.56200	0.00000	0.00000
3.56400	-3.06680	89.91000
3.56600	-3.06680	89.82000
3.56800	-3.15700	89.91000
3.57000	-3.15700	89.91000
3.57200	-3.15700	89.91000
3.57400	-3.24720	89.91000
3.57600	0.00000	0.00000
3.57800	-3.24720	89.91000
3.58000	-3.33740	89.91000
3.58200	-3.33740	90.00000
3.58400	-3.24720	90.00000
3.58600	-3.24720	89.91000
3.58800	-3.15700	89.91000
3.59000	0.00000	0.00000
3.59200	-3.24720	89.82000
3.59400	-3.33740	89.82000
3.59600	-3.51780	89.82000
3.59800	-3.51780	90.00000
3.60000	-3.42760	90.00000
3.60200	-3.51780	89.82000
3.60400	0.00000	0.00000
3.60600	-3.42760	89.82000
3.60800	-3.42760	89.82000
3.61000	-3.42760	89.82000
3.61200	-3.42760	89.82000
3.61400	-3.51780	89.91000
3.61600	-3.60800	89.73000
3.61800	0.00000	0.00000
3.62000	-3.69820	89.82000
3.62200	-3.69820	89.82000
3.62400	-3.60800	89.82000
3.62600	-3.60800	89.82000
3.62800	-3.60800	89.82000
3.63000	-3.60800	89.73000
3.63200	0.00000	0.00000
3.63400	-3.60800	89.82000
3.63600	-3.60800	89.73000
3.63800	-3.60800	89.55000
3.64000	-3.60800	89.64000
3.64200	-3.60800	89.73000
3.64400	-3.78840	89.82000
3.64600	0.00000	0.00000
3.64800	-3.78840	89.82000
3.65000	-3.78840	89.82000
3.65200	0.00000	0.00000
3.65400	-3.78840	89.82000
3.65600	-3.78840	89.82000
3.65800	0.00000	0.00000
3.66000	-3.69820	89.82000
3.66200	-3.69820	89.73000
3.66400	-3.69820	89.73000
3.66600	-3.96880	89.73000
3.66800	-3.87860	89.73000
3.67000	-3.69820	89.73000
3.67200	0.00000	0.00000
3.67400	-3.78840	89.73000
3.67600	-3.78840	89.82000
3.67800	-3.78840	89.82000
3.68000	-3.78840	89.91000
3.68200	-3.69820	89.82000
3.68400	-3.60800	89.91000
3.68600	0.00000	0.00000
3.68800	-3.69820	89.91000
3.69000	-3.69820	89.82000
3.69200	-3.60800	89.91000
3.69400	-3.60800	89.91000
3.69600	-3.42760	90.00000
3.69800	-3.51780	89.91000
3.70000	-3.51780	90.00000
3.70200	0.00000	0.00000
3.70400	-3.42760	89.91000
3.70600	-3.33740	89.91000
3.70800	-3.33740	90.00000
3.71000	-3.33740	90.00000
3.71200	0.00000	0.00000
3.71400	0.00000	0.00000
3.71600	-3.33740	90.00000
3.71800	-3.33740	89.91000
3.72000	-3.33740	89.91000
3.72200	-3.42760	89.91000
3.72400	-3.42760	89.82000
3.72600	-3.33740	90.09000
3.72800	-3.33740	90.18000
3.73000	-3.42760	90.09000
3.73200	-3.42760	90.09000
3.73400	0.00000	0.00000
3.73600	-3.51780	90.00000
3.73800	-3.42760	90.00000
3.74000	-3.42760	89.91000
3.74200	-3.42760	89.91000
3.74400	0.00000	0.00000
3.74600	-3.33740	90.00000
3.74800	-3.24720	89.91000
3.75000	-3.24720	90.00000
3.75200	0.00000	0.00000
3.75400	-3.33740	89.82000
3.75600	0.00000	0.00000
3.75800	-3.42760	89.64000
3.76000	-3.42760	89.82000
3.76200	-3.33740	89.82000
3.76400	-3.42760	89.82000
3.76600	-3.51780	89.82000
3.76800	-3.51780	90.00000
3.77000	0.00000	0.00000
3.77200	-3.51780	89.91000
3.77400	-3.60800	89.82000
3.77600	-3.60800	89.82000
3.77800	-3.60800	89.82000
3.78000	-3.51780	89.82000
3.78200	-3.60800	89.55000
3.78400	0.00000	0.00000
3.78600	-3.60800	89.64000
3.78800	-3.60800	89.64000
3.79000	-3.60800	89.73000
3.79200	-3.69820	89.73000
3.79400	-3.78840	89.64000
3.79600	-3.69820	89.73000
3.79800	0.00000	0.00000
3.80000	-3.60800	89.73000
3.80200	-3.60800	89.73000
3.80400	-3.60800	89.64000
3.80600	-3.78840	89.64000
3.80800	-3.87860	89.55000
3.81000	-3.78840	89.64000
3.81200	-3.69820	89.64000
3.81400	0.00000	0.00000
3.81600	-3.69820	89.64000
3.81800	-3.60800	89.73000
3.82000	-3.69820	89.73000
3.82200	-3.69820	89.73000
3.82400	-3.69820	89.82000
3.82600	-3.60800	89.82000
3.82800	-3.69820	89.91000
3.83000	0.00000	0.00000
3.83200	-3.69820	89.91000
3.83400	-3.51780	89.91000
3.83600	-3.42760	90.00000
3.83800	-3.42760	89.91000
3.84000	0.00000	0.00000
3.84200	-3.51780	89.91000
3.84400	-3.42760	89.91000
3.84600	-3.42760	89.82000
3.84800	-3.33740	89.91000
3.85000	-3.33740	89.82000
3.85200	-3.24720	89.91000
3.85400	0.00000	0.00000
3.85600	-3.15700	89.91000
3.85800	-3.15700	90.00000
3.86000	-3.15700	89.82000
3.86200	-3.15700	89.91000
3.86400	-3.15700	89.91000
3.86600	-3.24720	90.00000
3.86800	0.00000	0.00000
3.87000	-3.24720	90.00000
3.87200	-3.24720	89.91000
3.87400	-3.24720	89.82000
3.87600	-3.24720	89.73000
3.87800	-3.24720	89.82000
3.88000	-3.42760	89.91000
3.88200	0.00000	0.00000
3.88400	-3.42760	90.00000
3.88600	-3.42760	90.00000
3.88800	-3.42760	89.82000
3.89000	-3.33740	89.91000
3.89200	-3.42760	89.91000
3.89400	-3.51780	89.91000
3.89600	0.00000	0.00000
3.89800	-3.42760	89.91000
3.90000	-3.33740	89.91000
3.90200	-3.42760	90.00000
3.90400	-3.60800	90.00000
3.90600	-3.60800	89.91000
3.90800	-3.69820	89.82000
3.91000	0.00000	0.00000
3.91200	-3.69820	89.91000
3.91400	-3.60800	89.73000
3.91600	0.00000	0.00000
3.91800	-3.60800	89.82000
3.92000	-3.60800	89.91000
3.92200	-3.60800	89.82000
3.92400	-3.51780	89.82000
3.92600	0.00000	0.00000
3.92800	-3.33740	89.73000
3.93000	-3.42760	89.73000
3.93200	-3.24720	89.73000
3.93400	-3.24720	89.82000
3.93600	-3.24720	89.82000
3.93800	0.00000	0.00000
3.94000	-3.15700	89.82000
3.94200	-3.06680	89.73000
3.94400	-3.06680	89.73000
3.94600	-3.06680	89.82000
3.94800	-3.15700	89.73000
3.95000	-3.24720	89.82000
3.95200	0.00000	0.00000
3.95400	-3.33740	89.73000
3.95600	-3.24720	89.64000
3.95800	-3.24720	89.82000
3.96000	-3.24720	89.73000
3.96200	-3.24720	89.82000
3.96400	-3.33740	89.82000
3.96600	0.00000	0.00000
3.96800	-3.42760	89.73000
3.97000	-3.42760	89.73000
3.97200	0.00000	0.00000
3.97400	-3.33740	89.73000
3.97600	-3.33740	89.82000
3.97800	-3.33740	89.91000
3.98000	0.00000	0.00000
3.98200	-3.33740	90.00000
3.98400	-3.33740	90.00000
3.98600	-3.33740	90.00000
3.98800	-3.24720	89.91000
3.99000	-3.33740	89.91000
3.99200	-3.42760	89.91000
3.99400	0.00000	0.00000
3.99600	-3.51780	89.91000
3.99800	-3.42760	89.91000
4.00000	-3.51780	89.91000
4.00200	-3.51780	90.00000
4.00400	-3.51780	89.91000
4.00600	-3.60800	89.91000
4.00800	0.00000	0.00000
4.01000	-3.60800	89.91000
4.01200	-3.60800	90.00000
4.01400	-3.69820	90.00000
4.01600	-3.60800	90.09000
4.01800	-3.60800	90.18000
4.02000	-3.60800	90.09000
4.02200	-3.51780	90.09000
4.02400	-3.60800	90.27000
4.02600	-3.51780	90.27000
4.02800	-3.51780	90.27000
4.03000	-3.51780	90.18000
4.03200	0.00000	0.00000
4.03400	-3.69820	90.00000
4.03600	-3.69820	90.00000
4.03800	0.00000	0.00000
4.04000	-3.69820	89.91000
4.04200	-3.69820	90.09000
4.04400	-3.78840	90.09000
4.04600	-3.96880	90.00000
4.04800	-3.96880	90.00000
4.05000	0.00000	0.00000
4.05200	-3.87860	90.00000
4.05400	-4.05900	90.00000
4.05600	0.00000	0.00000
4.05800	-3.96880	90.00000
4.06000	-3.96880	90.00000
4.06200	-3.96880	90.09000
4.06400	0.00000	0.00000
4.06600	-3.96880	90.00000
4.06800	-3.96880	90.00000
4.07000	-3.96880	90.00000
4.07200	0.00000	0.00000
4.07400	-3.87860	89.91000
4.07600	-3.78840	89.73000
4.07800	0.00000	0.00000
4.08000	-3.78840	89.73000
4.08200	-3.78840	89.82000
4.08400	-3.78840	89.82000
4.08600	-3.78840	89.82000
4.08800	-3.87860	89.73000
4.09000	-3.87860	89.73000
4.09200	-3.87860	89.82000
4.09400	0.00000	0.00000
4.09600	-3.87860	89.73000
4.09800	-3.78840	89.64000
4.10000	-3.78840	89.64000
4.10200	-3.78840	89.73000
4.10400	-3.78840	89.73000
4.10600	0.00000	0.00000
4.10800	-3.87860	89.73000
4.11000	-3.69820	89.64000
4.11200	-3.87860	89.64000
4.11400	0.00000	0.00000
4.11600	-3.78840	89.64000
4.11800	-3.60800	89.73000
4.12000	0.00000	0.00000
4.12200	-3.60800	89.73000
4.12400	-3.69820	89.73000
4.12600	-3.78840	89.64000
4.12800	-3.69820	89.73000
4.13000	0.00000	0.00000
4.13200	-3.69820	89.82000
4.13400	0.00000	0.00000
4.13600	-3.60800	89.91000
4.13800	-3.60800	89.82000
4.14000	-3.60800	89.82000
4.14200	-3.69820	89.73000
4.14400	-3.60800	89.82000
4.14600	-3.51780	89.82000
4.14800	0.00000	0.00000
4.15000	-3.51780	89.82000
4.15200	-3.51780	89.82000
4.15400	-3.60800	89.91000
4.15600	-3.69820	89.82000
4.15800	-3.51780	89.82000
4.16000	-3.51780	89.91000
4.16200	0.00000	0.00000
4.16400	-3.51780	89.82000
4.16600	-3.42760	89.82000
4.16800	-3.42760	89.82000
4.17000	-3.42760	89.82000
4.17200	-3.51780	89.91000
4.17400	-3.51780	89.82000
4.17600	0.00000	0.00000
4.17800	-3.51780	89.82000
4.18000	-3.60800	89.82000
4.18200	-3.60800	89.82000
4.18400	-3.69820	90.00000
4.18600	-3.51780	89.91000
4.18800	-3.69820	89.91000
4.19000	0.00000	0.00000
4.19200	-3.78840	90.00000
4.19400	-3.78840	89.91000
4.19600	-3.87860	89.91000
4.19800	-3.87860	89.82000
4.20000	-3.96880	89.91000
4.20200	-3.78840	90.09000
4.20400	0.00000	0.00000
4.20600	-3.78840	90.18000
4.20800	-3.78840	90.18000
4.21000	-3.78840	90.09000
4.21200	-3.96880	90.00000
4.21400	-4.05900	90.00000
4.21600	-3.96880	89.91000
4.21800	0.00000	0.00000
4.22000	-3.96880	90.00000
4.22200	-3.87860	90.00000
4.22400	-3.96880	90.00000
4.22600	-3.87860	89.82000
4.22800	0.00000	0.00000
4.23000	-3.78840	89.91000
4.23200	0.00000	0.00000
4.23400	-3.87860	89.91000
4.23600	-3.78840	89.91000
4.23800	-3.87860	89.91000
4.24000	-3.78840	89.82000
4.24200	-3.69820	89.91000
4.24400	-3.69820	89.82000
4.24600	0.00000	0.00000
4.24800	-3.69820	89.91000
4.25000	-3.69820	89.82000
4.25200	-3.69820	89.91000
4.25400	-3.87860	89.91000
4.25600	-3.87860	89.91000
4.25800	-3.78840	89.91000
4.26000	0.00000	0.00000
4.26200	-3.78840	89.91000
4.26400	-3.78840	89.91000
4.26600	-3.69820	89.82000
4.26800	-3.69820	89.82000
4.27000	-3.69820	89.82000
4.27200	-3.69820	89.82000
4.27400	0.00000	0.00000
4.27600	-3.69820	89.73000
4.27800	-3.69820	89.73000
4.28000	-3.69820	89.82000
4.28200	-3.69820	89.91000
4.28400	-3.60800	89.82000
4.28600	-3.51780	89.82000
4.28800	0.00000	0.00000
4.29000	-3.51780	89.91000
4.29200	-3.42760	89.91000
4.29400	-3.42760	89.91000
4.29600	-3.42760	90.00000
4.29800	-3.42760	89.91000
4.30000	-3.33740	89.82000
4.30200	0.00000	0.00000
4.30400	-3.42760	89.73000
4.30600	-3.42760	89.73000
4.30800	-3.33740	89.73000
4.31000	-3.24720	89.73000
4.31200	-3.15700	89.73000
4.31400	-3.24720	89.82000
4.31600	0.00000	0.00000
4.31800	-3.15700	89.91000
4.32000	-3.24720	89.91000
4.32200	-3.24720	89.91000
4.32400	-3.15700	89.91000
4.32600	-3.06680	89.82000
4.32800	-3.06680	89.91000
4.33000	0.00000	0.00000
4.33200	-3.06680	89.91000
4.33400	-3.06680	89.91000
4.33600	-3.06680	89.91000
4.33800	-3.06680	89.82000
4.34000	-2.97660	89.73000
4.34200	-2.97660	89.91000
4.34400	0.00000	0.00000
4.34600	-3.06680	89.91000
4.34800	-3.06680	89.91000
4.35000	-3.06680	89.91000
4.35200	-3.06680	89.73000
4.35400	-3.15700	89.73000
4.35600	-2.97660	89.82000
4.35800	0.00000	0.00000
4.36000	-2.97660	89.82000
4.36200	-3.15700	89.82000
4.36400	-3.15700	89.91000
4.36600	-3.15700	89.82000
4.36800	-3.24720	89.91000
4.37000	-3.33740	89.73000
4.37200	0.00000	0.00000
4.37400	-3.24720	89.73000
4.37600	-3.24720	89.73000
4.37800	-3.15700	89.82000
4.38000	-3.24720	89.73000
4.38200	-3.24720	89.73000
4.38400	-3.24720	89.82000
4.38600	0.00000	0.00000
4.38800	-3.24720	89.73000
4.39000	-3.24720	89.73000
4.39200	-3.24720	89.82000
4.39400	-3.24720	89.91000
4.39600	-3.24720	90.00000
4.39800	-3.06680	89.82000
4.40000	0.00000	0.00000
4.40200	-2.97660	89.91000
4.40400	-3.06680	89.91000
4.40600	-3.06680	89.91000
4.40800	-2.97660	89.91000
4.41000	-2.97660	89.91000
4.41200	-3.06680	89.82000
4.41400	0.00000	0.00000
4.41600	-3.06680	89.82000
4.41800	-3.06680	89.82000
4.42000	-3.15700	89.82000
4.42200	-3.06680	89.82000
4.42400	-2.97660	89.91000
4.42600	-2.97660	89.91000
4.42800	0.00000	0.00000
4.43000	-3.06680	89.91000
4.43200	-3.15700	89.82000
4.43400	-3.24720	89.91000
4.43600	-3.15700	90.00000
4.43800	-3.24720	90.00000
4.44000	-3.42760	90.00000
4.44200	0.00000	0.00000
4.44400	-3.51780	90.00000
4.44600	-3.60800	90.00000
4.44800	-3.51780	90.00000
4.45000	-3.60800	90.09000
4.45200	-3.60800	90.09000
4.45400	-3.60800	90.09000
4.45600	0.00000	0.00000
4.45800	-3.69820	90.00000
4.46000	-3.78840	90.00000
4.46200	-3.78840	90.00000
4.46400	-3.87860	90.00000
4.46600	-3.87860	90.09000
4.46800	-3.96880	90.00000
4.47000	0.00000	0.00000
4.47200	-3.96880	90.00000
4.47400	-3.96880	89.91000
4.47600	-3.87860	90.00000
4.47800	-3.96880	90.00000
4.48000	-3.96880	89.91000
4.48200	-4.05900	89.91000
4.48400	0.00000	0.00000
4.48600	-3.96880	89.82000
4.48800	-4.05900	89.82000
4.49000	-4.23940	89.82000
4.49200	-4.23940	89.91000
4.49400	-4.14920	89.91000
4.49600	-4.14920	90.00000
4.49800	0.00000	0.00000
4.50000	-4.05900	90.00000
4.50200	-4.05900	89.91000
4.50400	-4.14920	89.82000
4.50600	-4.14920	89.91000
4.50800	-4.23940	89.91000
4.51000	-4.05900	89.82000
4.51200	0.00000	0.00000
4.51400	-4.14920	89.82000
4.51600	-4.14920	89.91000
4.51800	-4.14920	89.82000
4.52000	-4.14920	89.82000
4.52200	-4.23940	89.82000
4.52400	-4.32960	89.82000
4.52600	0.00000	0.00000
4.52800	-4.32960	89.82000
4.53000	-4.23940	89.82000
4.53200	-4.23940	89.82000
4.53400	-4.32960	89.91000
4.53600	-4.23940	89.73000
4.53800	-4.32960	89.73000
4.54000	0.00000	0.00000
4.54200	-4.32960	89.73000
4.54400	-4.32960	89.73000
4.54600	-4.32960	89.82000
4.54800	-4.32960	89.82000
4.55000	-4.32960	89.82000
4.55200	-4.14920	89.82000
4.55400	0.00000	0.00000
4.55600	-4.05900	89.91000
4.55800	-3.96880	90.00000
4.56000	-3.96880	90.00000
4.56200	-3.87860	89.91000
4.56400	-3.96880	89.82000
4.56600	-3.87860	89.91000
4.56800	0.00000	0.00000
4.57000	-3.87860	89.91000
4.57200	-3.78840	89.82000
4.57400	-3.78840	89.82000
4.57600	-3.78840	89.82000
4.57800	-3.69820	89.73000
4.58000	-3.60800	89.73000
4.58200	0.00000	0.00000
4.58400	-3.51780	89.73000
4.58600	-3.60800	89.73000
4.58800	-3.69820	89.73000
4.59000	-3.60800	89.82000
4.59200	-3.60800	89.82000
4.59400	-3.60800	89.82000
4.59600	0.00000	0.00000
4.59800	-3.69820	89.73000
4.60000	-3.60800	89.64000
4.60200	-3.69820	89.73000
4.60400	-3.60800	89.64000
4.60600	-3.69820	89.73000
4.60800	-3.51780	89.82000
4.61000	0.00000	0.00000
4.61200	-3.51780	89.91000
4.61400	-3.51780	89.91000
4.61600	-3.60800	89.82000
4.61800	-3.60800	89.73000
4.62000	-3.60800	89.73000
4.62200	-3.78840	89.73000
4.62400	0.00000	0.00000
4.62600	-3.78840	89.82000
4.62800	-3.87860	89.82000
4.63000	-3.78840	89.73000
4.63200	-3.96880	89.73000
4.63400	-3.87860	89.82000
4.63600	-3.78840	89.82000
4.63800	0.00000	0.00000
4.64000	-3.78840	89.73000
4.64200	-3.78840	89.73000
4.64400	-3.78840	89.73000
4.64600	-3.78840	89.73000
4.64800	-3.78840	89.73000
4.65000	-3.78840	89.73000
4.65200	-3.69820	89.73000
4.65400	-3.69820	89.82000
4.65600	-3.60800	89.82000
4.65800	0.00000	0.00000
4.66000	-3.60800	89.82000
4.66200	-3.60800	89.91000
4.66400	0.00000	0.00000
4.66600	-3.60800	89.82000
4.66800	-3.60800	89.91000
4.67000	-3.60800	89.91000
4.67200	-3.60800	89.82000
4.67400	-3.51780	89.82000
4.67600	-3.42760	89.82000
4.67800	0.00000	0.00000
4.68000	-3.51780	89.73000
4.68200	-3.51780	89.82000
4.68400	-3.42760	89.82000
4.68600	-3.51780	89.91000
4.68800	-3.51780	89.91000
4.69000	-3.51780	90.09000
4.69200	0.00000	0.00000
4.69400	-3.42760	90.09000
4.69600	-3.42760	90.00000
4.69800	0.00000	0.00000
4.70000	-3.42760	89.91000
4.70200	0.00000	0.00000
4.70400	-3.51780	90.00000
4.70600	0.00000	0.00000
4.70800	-3.51780	90.00000
4.71000	-3.51780	90.09000
4.71200	-3.42760	90.00000
4.71400	-3.51780	90.00000
4.71600	0.00000	0.00000
4.71800	-3.69820	89.91000
4.72000	0.00000	0.00000
4.72200	-3.69820	89.91000
4.72400	-3.60800	90.00000
4.72600	-3.69820	89.91000
4.72800	-3.78840	89.91000
4.73000	-3.78840	89.91000
4.73200	-3.78840	89.82000
4.73400	-3.78840	89.82000
4.73600	0.00000	0.00000
4.73800	-3.78840	89.82000
4.74000	-3.87860	89.91000
4.74200	-3.78840	90.09000
4.74400	-3.87860	90.00000
4.74600	-3.87860	89.82000
4.74800	0.00000	0.00000
4.75000	-3.87860	89.82000
4.75200	-3.87860	89.82000
4.75400	-3.87860	89.82000
4.75600	-3.87860	89.82000
4.75800	-3.87860	89.91000
4.76000	-3.96880	89.82000
4.76200	0.00000	0.00000
4.76400	-3.87860	89.73000
4.76600	0.00000	0.00000
4.76800	-3.96880	89.91000
4.77000	-3.96880	89.82000
4.77200	-3.96880	89.73000
4.77400	-3.87860	89.82000
4.77600	0.00000	0.00000
4.77800	-3.87860	89.91000
4.78000	-3.87860	89.91000
4.78200	-3.87860	89.91000
4.78400	-3.87860	89.91000
4.78600	-3.96880	89.91000
4.78800	-3.78840	90.09000
4.79000	-3.78840	90.00000
4.79200	0.00000	0.00000
4.79400	-3.87860	89.82000
4.79600	-3.87860	89.91000
4.79800	-3.87860	89.82000
4.80000	-3.78840	89.91000
4.80200	-3.87860	89.91000
4.80400	0.00000	0.00000
4.80600	-3.78840	89.82000
4.80800	-3.69820	89.91000
4.81000	-3.69820	89.91000
4.81200	-3.78840	89.91000
4.81400	-3.78840	89.82000
4.81600	-3.78840	89.82000
4.81800	0.00000	0.00000
4.82000	-3.69820	89.73000
4.82200	-3.78840	89.73000
4.82400	-3.78840	89.82000
4.82600	-3.69820	89.91000
4.82800	-3.69820	89.91000
4.83000	-3.60800	89.73000
4.83200	0.00000	0.00000
4.83400	-3.60800	89.73000
4.83600	-3.42760	89.82000
4.83800	-3.42760	89.82000
4.84000	-3.42760	89.82000
4.84200	-3.51780	89.91000
4.84400	-3.42760	89.91000
4.84600	0.00000	0.00000
4.84800	0.00000	0.00000
4.85000	-3.51780	89.91000
4.85200	-3.51780	89.82000
4.85400	-3.42760	89.82000
4.85600	-3.51780	89.82000
4.85800	-3.60800	89.73000
4.86000	0.00000	0.00000
4.86200	-3.69820	89.82000
4.86400	-3.69820	89.82000
4.86600	-3.78840	89.82000
4.86800	-3.78840	89.82000
4.87000	-3.87860	89.64000
4.87200	-3.96880	89.73000
4.87400	0.00000	0.00000
4.87600	-3.96880	89.73000
4.87800	-3.96880	89.73000
4.88000	-3.87860	89.73000
4.88200	-3.87860	89.73000
4.88400	-3.96880	89.73000
4.88600	-4.05900	89.64000
4.88800	0.00000	0.00000
4.89000	-4.14920	89.64000
4.89200	-4.14920	89.64000
4.89400	-4.14920	89.55000
4.89600	-4.14920	89.55000
4.89800	-4.14920	89.46000
4.90000	-4.14920	89.46000
4.90200	0.00000	0.00000
4.90400	-4.14920	89.46000
4.90600	-4.23940	89.55000
4.90800	-4.23940	89.64000
4.91000	-4.14920	89.64000
4.91200	-4.05900	89.73000
4.91400	-4.14920	89.73000
4.91600	0.00000	0.00000
4.91800	-4.05900	89.73000
4.92000	-4.14920	89.82000
4.92200	-4.05900	89.82000
4.92400	-3.96880	89.82000
4.92600	-3.78840	89.82000
4.92800	-3.96880	89.82000
4.93000	0.00000	0.00000
4.93200	-3.96880	89.82000
4.93400	-3.96880	89.82000
4.93600	-3.96880	89.82000
4.93800	-3.96880	89.82000
4.94000	-3.87860	89.91000
4.94200	-3.96880	89.91000
4.94400	0.00000	0.00000
4.94600	-4.05900	89.91000
4.94800	-4.05900	89.91000
4.95000	-4.05900	89.91000
4.95200	-4.05900	89.82000
4.95400	-4.14920	89.82000
4.95600	-4.14920	89.82000
4.95800	0.00000	0.00000
4.96000	-4.14920	89.91000
4.96200	-4.23940	89.91000
4.96400	-4.23940	89.91000
4.96600	-4.23940	90.00000
4.96800	-4.23940	90.00000
4.97000	-4.23940	90.09000
4.97200	0.00000	0.00000
4.97400	-4.23940	90.09000
4.97600	-4.23940	90.09000
4.97800	-4.23940	90.09000
4.98000	-4.14920	90.00000
4.98200	-4.23940	90.00000
4.98400	-4.14920	90.00000
4.98600	0.00000	0.00000
4.98800	-4.14920	90.00000
4.99000	-4.05900	90.00000
4.99200	-3.96880	90.18000
4.99400	-4.05900	90.09000
4.99600	-4.14920	90.09000
4.99800	-4.14920	90.09000
5.00000	0.00000	0.00000
5.00200	-4.14920	89.91000
5.00400	-4.14920	89.91000
5.00600	-4.05900	89.91000
5.00800	-4.05900	89.91000
5.01000	-4.05900	90.00000
5.01200	-4.05900	90.00000
5.01400	0.00000	0.00000
5.01600	-4.14920	90.00000
5.01800	-4.23940	89.91000
5.02000	-4.14920	89.91000
5.02200	-4.05900	89.91000
5.02400	-4.05900	89.91000
5.02600	-4.05900	89.91000
5.02800	-4.05900	89.91000
5.03000	-4.05900	90.00000
5.03200	-4.14920	89.91000
5.03400	0.00000	0.00000
5.03600	-4.05900	89.91000
5.03800	-4.14920	89.91000
5.04000	-4.05900	89.91000
5.04200	-4.14920	89.82000
5.04400	-4.14920	89.82000
5.04600	-4.23940	89.91000
5.04800	0.00000	0.00000
5.05000	-4.05900	89.91000
5.05200	-4.14920	89.91000
5.05400	-4.05900	89.91000
5.05600	-4.05900	89.91000
5.05800	-4.05900	89.82000
5.06000	-4.05900	89.73000
5.06200	0.00000	0.00000
5.06400	-3.96880	89.82000
5.06600	-3.96880	89.91000
5.06800	-3.87860	89.82000
5.07000	-4.05900	89.91000
5.07200	-3.96880	89.91000
5.07400	-3.96880	89.91000
5.07600	0.00000	0.00000
5.07800	-3.96880	89.91000
5.08000	-3.87860	89.91000
5.08200	0.00000	0.00000
5.08400	-3.87860	89.82000
5.08600	-3.78840	89.82000
5.08800	0.00000	0.00000
5.09000	0.00000	0.00000
5.09200	-3.87860	89.82000
5.09400	-3.78840	89.82000
5.09600	-3.87860	89.73000
5.09800	-3.87860	89.82000
5.10000	-3.87860	89.73000
5.10200	-3.87860	89.82000
5.10400	0.00000	0.00000
5.10600	-3.87860	89.82000
5.10800	-3.96880	89.82000
5.11000	-3.87860	89.82000
5.11200	-3.87860	89.73000
5.11400	-3.78840	89.82000
5.11600	-3.78840	89.82000
5.11800	0.00000	0.00000
5.12000	-3.87860	89.73000
5.12200	-3.87860	89.82000
5.12400	-3.87860	89.91000
5.12600	-3.96880	89.82000
5.12800	-3.96880	89.82000
5.13000	-4.05900	89.91000
5.13200	0.00000	0.00000
5.13400	-4.14920	89.82000
5.13600	-4.14920	89.82000
5.13800	-4.14920	89.82000
5.14000	-4.05900	89.64000
5.14200	-4.14920	89.73000
5.14400	-4.05900	89.82000
5.14600	0.00000	0.00000
5.14800	-3.96880	89.82000
5.15000	-4.05900	89.91000
5.15200	-4.05900	89.82000
5.15400	-4.14920	89.82000
5.15600	-4.14920	89.73000
5.15800	-4.05900	89.91000
5.16000	0.00000	0.00000
5.16200	-4.05900	89.91000
5.16400	-4.05900	89.82000
5.16600	-4.05900	89.73000
5.16800	-3.96880	89.73000
5.17000	-3.96880	89.64000
5.17200	-3.96880	89.64000
5.17400	0.00000	0.00000
5.17600	-4.05900	89.82000
5.17800	-4.14920	89.91000
5.18000	-4.14920	89.82000
5.18200	-4.14920	89.82000
5.18400	-4.14920	89.73000
5.18600	-4.05900	89.73000
5.18800	0.00000	0.00000
5.19000	-4.05900	89.82000
5.19200	-3.96880	89.73000
5.19400	-4.05900	89.64000
5.19600	-4.05900	89.82000
5.19800	-3.96880	89.64000
5.20000	-4.14920	89.73000
5.20200	0.00000	0.00000
5.20400	-4.14920	89.73000
5.20600	-4.23940	89.82000
5.20800	0.00000	0.00000
5.21000	-4.32960	89.82000
5.21200	-4.32960	89.82000
5.21400	-4.41980	89.82000
5.21600	0.00000	0.00000
5.21800	-4.41980	89.91000
5.22000	-4.32960	89.91000
5.22200	-4.41980	89.91000
5.22400	-4.32960	89.91000
5.22600	-4.32960	89.91000
5.22800	-4.32960	89.82000
5.23000	0.00000	0.00000
5.23200	-4.32960	89.82000
5.23400	-4.32960	89.73000
5.23600	-4.32960	89.82000
5.23800	-4.51000	89.91000
5.24000	0.00000	0.00000
5.24200	-4.32960	89.82000
5.24400	0.00000	0.00000
5.24600	-4.32960	89.82000
5.24800	-4.32960	89.82000
5.25000	-4.23940	89.82000
5.25200	-4.14920	89.82000
5.25400	-4.14920	89.82000
5.25600	-4.23940	89.91000
5.25800	0.00000	0.00000
5.26000	-4.14920	89.82000
5.26200	-4.14920	89.91000
5.26400	-4.05900	89.91000
5.26600	-3.87860	89.91000
5.26800	-3.87860	89.91000
5.27000	-3.78840	89.82000
5.27200	0.00000	0.00000
5.27400	-3.69820	89.82000
5.27600	-3.51780	89.82000
5.27800	-3.51780	89.91000
5.28000	-3.42760	89.91000
5.28200	-3.42760	89.91000
5.28400	-3.33740	90.09000
5.28600	0.00000	0.00000
5.28800	-3.33740	90.00000
5.29000	-3.33740	89.91000
5.29200	-3.33740	89.91000
5.29400	-3.24720	89.82000
5.29600	-3.24720	89.91000
5.29800	-3.15700	89.73000
5.30000	0.00000	0.00000
5.30200	-3.15700	89.82000
5.30400	-3.15700	89.73000
5.30600	-3.24720	89.73000
5.30800	-3.33740	89.82000
5.31000	0.00000	0.00000
5.31200	-3.42760	89.82000
5.31400	0.00000	0.00000
5.31600	-3.42760	89.91000
5.31800	-3.42760	89.91000
5.32000	-3.42760	89.82000
5.32200	-3.33740	89.82000
5.32400	-3.33740	89.73000
5.32600	-3.33740	89.82000
5.32800	0.00000	0.00000
5.33000	-3.42760	89.82000
5.33200	-3.42760	89.73000
5.33400	0.00000	0.00000
5.33600	-3.42760	89.82000
5.33800	-3.42760	89.82000
5.34000	-3.51780	89.64000
5.34200	-3.51780	89.64000
5.34400	-3.60800	89.55000
5.34600	-3.60800	89.55000
5.34800	0.00000	0.00000
5.35000	-3.60800	89.82000
5.35200	-3.60800	89.73000
5.35400	-3.69820	89.64000
5.35600	0.00000	0.00000
5.35800	-3.69820	89.73000
5.36000	-3.78840	89.73000
5.36200	0.00000	0.00000
5.36400	-3.87860	89.82000
5.36600	-3.96880	89.82000
5.36800	-3.96880	89.91000
5.37000	-3.96880	89.91000
5.37200	0.00000	0.00000
5.37400	-4.05900	89.91000
5.37600	-4.05900	90.00000
5.37800	-4.05900	90.00000
5.38000	-4.14920	90.00000
5.38200	-4.23940	90.00000
5.38400	-4.23940	89.82000
5.38600	0.00000	0.00000
5.38800	-4.14920	89.82000
5.39000	-4.14920	89.91000
5.39200	-4.14920	89.91000
5.39400	-4.14920	89.91000
5.39600	-4.14920	89.91000
5.39800	0.00000	0.00000
5.40000	-4.23940	89.91000
5.40200	-4.14920	89.82000
5.40400	0.00000	0.00000
5.40600	-4.05900	89.91000
5.40800	-4.14920	89.91000
5.41000	-4.23940	90.09000
5.41200	0.00000	0.00000
5.41400	-4.32960	89.91000
5.41600	0.00000	0.00000
5.41800	-4.23940	89.91000
5.42000	-4.14920	89.82000
5.42200	-4.14920	89.91000
5.42400	-4.05900	89.91000
5.42600	-3.96880	90.00000
5.42800	0.00000	0.00000
5.43000	-4.05900	90.00000
5.43200	-4.14920	90.00000
5.43400	-4.14920	90.00000
5.43600	-4.05900	90.09000
5.43800	-4.14920	90.00000
5.44000	0.00000	0.00000
5.44200	-4.14920	90.00000
5.44400	-3.96880	90.00000
5.44600	-3.96880	90.00000
5.44800	-3.96880	89.91000
5.45000	-3.96880	89.91000
5.45200	-3.96880	89.91000
5.45400	0.00000	0.00000
5.45600	-4.14920	89.82000
5.45800	-3.96880	89.82000
5.46000	-3.96880	89.73000
5.46200	-4.05900	89.82000
5.46400	-4.14920	89.82000
5.46600	-4.05900	89.82000
5.46800	0.00000	0.00000
5.47000	-4.05900	89.91000
5.47200	-4.05900	89.82000
5.47400	-4.14920	89.73000
5.47600	-4.14920	89.82000
5.47800	-4.14920	89.73000
5.48000	-4.14920	89.64000
5.48200	0.00000	0.00000
5.48400	-4.05900	89.73000
5.48600	-3.96880	89.82000
5.48800	-3.87860	89.73000
5.49000	-3.87860	89.73000
5.49200	-4.05900	89.73000
5.49400	-4.05900	89.64000
5.49600	0.00000	0.00000
5.49800	-4.05900	89.73000
5.50000	-4.05900	89.64000
5.50200	-3.96880	89.64000
5.50400	-3.96880	89.73000
5.50600	-4.05900	89.73000
5.50800	-4.14920	89.64000
5.51000	0.00000	0.00000
5.51200	-4.23940	89.73000
5.51400	0.00000	0.00000
5.51600	-4.14920	89.64000
5.51800	-4.23940	89.73000
5.52000	0.00000	0.00000
5.52200	-4.14920	89.73000
5.52400	0.00000	0.00000
5.52600	-4.23940	89.73000
5.52800	0.00000	0.00000
5.53000	-4.32960	89.73000
5.53200	-4.32960	89.64000
5.53400	-4.23940	89.73000
5.53600	-4.23940	89.64000
5.53800	-4.23940	89.73000
5.54000	0.00000	0.00000
5.54200	-4.14920	89.73000
5.54400	-4.23940	89.73000
5.54600	-4.23940	89.82000
5.54800	-4.41980	89.73000
5.55000	-4.32960	89.82000
5.55200	0.00000	0.00000
5.55400	-4.41980	89.82000
5.55600	0.00000	0.00000
5.55800	-4.41980	89.82000
5.56000	0.00000	0.00000
5.56200	-4.41980	89.82000
5.56400	-4.51000	89.82000
5.56600	0.00000	0.00000
5.56800	-4.60020	89.82000
5.57000	-4.60020	89.82000
5.57200	-4.51000	89.82000
5.57400	-4.60020	89.91000
5.57600	-4.60020	90.09000
5.57800	-4.69040	90.00000
5.58000	-4.69040	90.00000
5.58200	0.00000	0.00000
5.58400	-4.87080	90.09000
5.58600	0.00000	0.00000
5.58800	-4.78060	90.09000
5.59000	-4.87080	90.00000
5.59200	-4.87080	90.09000
5.59400	0.00000	0.00000
5.59600	-4.87080	90.09000
5.59800	-4.78060	90.18000
5.60000	-4.78060	90.09000
5.60200	-4.87080	90.18000
5.60400	-4.87080	90.09000
5.60600	-4.87080	90.18000
5.60800	0.00000	0.00000
5.61000	-4.69040	90.09000
5.61200	-4.60020	90.00000
5.61400	-4.60020	90.00000
5.61600	-4.51000	89.91000
5.61800	-4.60020	89.91000
5.62000	-4.51000	89.91000
5.62200	0.00000	0.00000
5.62400	-4.51000	89.91000
5.62600	-4.51000	89.82000
5.62800	-4.60020	89.82000
5.63000	-4.69040	89.82000
5.63200	-4.69040	89.82000
5.63400	-4.41980	89.82000
5.63600	0.00000	0.00000
5.63800	-4.51000	89.82000
5.64000	0.00000	0.00000
5.64200	-4.51000	89.82000
5.64400	-4.51000	89.82000
5.64600	-4.32960	89.82000
5.64800	0.00000	0.00000
5.65000	-4.32960	89.82000
5.65200	-4.41980	89.73000
5.65400	-4.51000	89.82000
5.65600	0.00000	0.00000
5.65800	-4.51000	89.82000
5.66000	-4.51000	89.73000
5.66200	-4.51000	89.73000
5.66400	-4.51000	89.73000
5.66600	0.00000	0.00000
5.66800	-4.41980	89.64000
5.67000	-4.51000	89.55000
5.67200	-4.41980	89.55000
5.67400	-4.51000	89.55000
5.67600	0.00000	0.00000
5.67800	-4.41980	89.64000
5.68000	-4.60020	89.73000
5.68200	-4.51000	89.64000
5.68400	-4.51000	89.64000
5.68600	-4.51000	89.73000
5.68800	-4.51000	89.73000
5.69000	0.00000	0.00000
5.69200	-4.51000	89.64000
5.69400	-4.41980	89.73000
5.69600	0.00000	0.00000
5.69800	-4.51000	89.73000
5.70000	0.00000	0.00000
5.70200	-4.41980	89.82000
5.70400	0.00000	0.00000
5.70600	-4.41980	89.73000
5.70800	-4.32960	89.73000
5.71000	0.00000	0.00000
5.71200	-4.23940	89.73000
5.71400	-4.23940	89.82000
5.71600	-4.23940	89.91000
5.71800	0.00000	0.00000
5.72000	-4.41980	89.91000
5.72200	-4.41980	89.91000
5.72400	-4.41980	89.82000
5.72600	-4.32960	89.91000
5.72800	-4.41980	89.82000
5.73000	-4.51000	90.09000
5.73200	0.00000	0.00000
5.73400	-4.51000	90.00000
5.73600	-4.51000	89.91000
5.73800	-4.60020	89.91000
5.74000	-4.60020	89.91000
5.74200	-4.60020	90.00000
5.74400	-4.51000	89.91000
5.74600	0.00000	0.00000
5.74800	-4.51000	89.91000
5.75000	-4.41980	90.00000
5.75200	-4.51000	90.18000
5.75400	-4.60020	90.09000
5.75600	-4.60020	90.00000
5.75800	-4.78060	90.09000
5.76000	0.00000	0.00000
5.76200	-4.60020	90.18000
5.76400	-4.69040	90.27000
5.76600	-4.78060	90.18000
5.76800	-4.78060	90.09000
5.77000	-4.78060	90.00000
5.77200	-4.69040	90.00000
5.77400	0.00000	0.00000
5.77600	-4.60020	90.00000
5.77800	-4.60020	90.00000
5.78000	-4.69040	90.00000
5.78200	-4.69040	89.82000
5.78400	-4.60020	89.91000
5.78600	-4.60020	89.91000
5.78800	0.00000	0.00000
5.79000	-4.69040	89.91000
5.79200	-4.60020	89.91000
5.79400	-4.69040	89.91000
5.79600	-4.60020	89.82000
5.79800	-4.51000	89.82000
5.80000	-4.60020	89.73000
5.80200	0.00000	0.00000
5.80400	-4.60020	89.73000
5.80600	-4.60020	89.73000
5.80800	-4.60020	89.82000
5.81000	-4.60020	89.82000
5.81200	-4.60020	89.82000
5.81400	-4.60020	89.73000
5.81600	0.00000	0.00000
5.81800	-4.60020	89.73000
5.82000	-4.51000	89.73000
5.82200	0.00000	0.00000
5.82400	-4.51000	89.73000
5.82600	-4.51000	89.73000
5.82800	-4.60020	89.82000
5.83000	0.00000	0.00000
5.83200	-4.41980	89.82000
5.83400	-4.41980	89.73000
5.83600	-4.41980	89.64000
5.83800	-4.51000	89.73000
5.84000	0.00000	0.00000
5.84200	-4.32960	89.55000
5.84400	-4.32960	89.55000
5.84600	0.00000	0.00000
5.84800	-4.14920	89.73000
5.85000	0.00000	0.00000
5.85200	-4.14920	89.73000
5.85400	-4.14920	89.64000
5.85600	-4.05900	89.73000
5.85800	0.00000	0.00000
5.86000	-4.14920	89.64000
5.86200	-4.05900	89.64000
5.86400	-4.05900	89.64000
5.86600	0.00000	0.00000
5.86800	-3.96880	89.64000
5.87000	-3.96880	89.55000
5.87200	0.00000	0.00000
5.87400	-3.96880	89.55000
5.87600	-3.96880	89.55000
5.87800	-3.87860	89.64000
5.88000	-3.78840	89.73000
5.88200	-3.60800	89.82000
5.88400	-3.51780	89.73000
5.88600	0.00000	0.00000
5.88800	-3.51780	89.73000
5.89000	0.00000	0.00000
5.89200	-3.51780	89.73000
5.89400	-3.60800	89.82000
5.89600	-3.60800	89.82000
5.89800	-3.60800	89.82000
5.90000	0.00000	0.00000
5.90200	-3.69820	89.73000
5.90400	-3.69820	89.73000
5.90600	-3.78840	89.73000
5.90800	-3.87860	89.73000
5.91000	-3.87860	89.91000
5.91200	-3.78840	89.91000
5.91400	0.00000	0.00000
5.91600	-3.87860	89.82000
5.91800	-3.87860	89.82000
5.92000	-3.78840	89.82000
5.92200	-3.87860	89.82000
5.92400	-3.96880	89.82000
5.92600	-4.23940	89.73000
5.92800	0.00000	0.00000
5.93000	-4.23940	89.73000
5.93200	-4.23940	89.73000
5.93400	-4.14920	89.82000
5.93600	-4.32960	89.91000
5.93800	-4.23940	89.91000
5.94000	-4.32960	89.82000
5.94200	0.00000	0.00000
5.94400	-4.23940	89.91000
5.94600	-4.23940	89.82000
5.94800	-4.23940	89.82000
5.95000	-4.14920	89.82000
5.95200	-4.23940	89.82000
5.95400	-4.32960	89.91000
5.95600	0.00000	89.91000
5.95800	-4.41980	89.91000
5.96000	-4.41980	89.91000
5.96200	-4.41980	89.91000
5.96400	-4.32960	89.91000
5.96600	-4.32960	89.82000
5.96800	-4.32960	89.73000
5.97000	0.00000	0.00000
5.97200	-4.23940	89.73000
5.97400	-4.14920	89.82000
5.97600	-4.14920	89.82000
5.97800	-4.23940	89.82000
5.98000	-4.14920	89.82000
5.98200	-4.14920	89.91000
5.98400	0.00000	0.00000
5.98600	-4.14920	89.82000
5.98800	-4.14920	89.91000
5.99000	-4.14920	89.91000
5.99200	-4.05900	89.82000
5.99400	-4.14920	89.82000
5.99600	-4.14920	89.91000
5.99800	0.00000	0.00000
6.00000	-4.23940	89.91000
6.00200	-4.23940	89.91000
6.00400	-4.23940	89.91000
6.00600	-4.23940	89.82000
6.00800	-4.23940	89.82000
6.01000	-4.23940	89.64000
6.01200	0.00000	0.00000
6.01400	-4.32960	89.73000
6.01600	-4.23940	89.82000
6.01800	-4.23940	89.82000
6.02000	-4.41980	89.82000
6.02200	-4.51000	89.73000
6.02400	-4.41980	89.82000
6.02600	0.00000	0.00000
6.02800	-4.51000	89.82000
6.03000	-4.51000	89.82000
6.03200	-4.51000	89.73000
6.03400	-4.51000	89.64000
6.03600	-4.41980	89.73000
6.03800	-4.41980	89.73000
6.04000	0.00000	0.00000
6.04200	-4.41980	89.64000
6.04400	-4.41980	89.73000
6.04600	-4.41980	89.73000
6.04800	-4.32960	89.64000
6.05000	-4.51000	89.55000
6.05200	-4.69040	89.64000
6.05400	0.00000	0.00000
6.05600	-4.69040	89.82000
6.05800	-4.60020	89.73000
6.06000	-4.60020	89.73000
6.06200	-4.69040	89.64000
6.06400	-4.78060	89.73000
6.06600	-4.78060	89.91000
6.06800	0.00000	0.00000
6.07000	-4.87080	89.82000
6.07200	-4.87080	89.73000
6.07400	-4.87080	89.82000
6.07600	-4.87080	89.82000
6.07800	-4.87080	89.82000
6.08000	-4.96100	89.73000
6.08200	0.00000	0.00000
6.08400	-4.96100	89.82000
6.08600	-4.96100	89.82000
6.08800	-4.96100	89.91000
6.09000	-5.05120	89.91000
6.09200	-4.96100	89.91000
6.09400	-4.96100	89.82000
6.09600	0.00000	0.00000
6.09800	-4.96100	89.82000
6.10000	-5.05120	89.73000
6.10200	-5.05120	89.82000
6.10400	-5.14140	89.91000
6.10600	-5.05120	89.82000
6.10800	-5.05120	89.82000
6.11000	0.00000	0.00000
6.11200	-4.96100	89.91000
6.11400	-4.87080	89.91000
6.11600	-4.78060	89.91000
6.11800	-4.87080	89.91000
6.12000	-4.96100	89.82000
6.12200	-4.87080	89.73000
6.12400	0.00000	0.00000
6.12600	-4.78060	89.91000
6.12800	-4.78060	89.91000
6.13000	-4.69040	89.91000
6.13200	-4.69040	89.91000
6.13400	-4.78060	89.82000
6.13600	-4.60020	89.82000
6.13800	0.00000	0.00000
6.14000	-4.69040	89.82000
6.14200	-4.78060	89.82000
6.14400	-4.78060	89.82000
6.14600	-4.69040	89.73000
6.14800	-4.60020	89.64000
6.15000	-4.69040	89.73000
6.15200	0.00000	0.00000
6.15400	-4.78060	89.73000
6.15600	-4.78060	89.73000
6.15800	-4.78060	89.73000
6.16000	-4.87080	89.82000
6.16200	-4.78060	89.82000
6.16400	-4.69040	89.73000
6.16600	0.00000	0.00000
6.16800	-4.78060	89.73000
6.17000	-4.87080	89.73000
6.17200	-4.87080	89.64000
6.17400	-4.78060	89.64000
6.17600	-4.78060	89.64000
6.17800	-4.78060	89.64000
6.18000	0.00000	0.00000
6.18200	-4.87080	89.64000
6.18400	-4.87080	89.64000
6.18600	-4.78060	89.64000
6.18800	-4.78060	89.73000
6.19000	-4.78060	89.73000
6.19200	-4.78060	89.82000
6.19400	0.00000	0.00000
6.19600	-4.60020	89.73000
6.19800	-4.69040	89.73000
6.20000	-4.60020	89.64000
6.20200	-4.60020	89.64000
6.20400	-4.69040	89.64000
6.20600	-4.78060	0.00000
6.20800	0.00000	0.00000
6.21000	-4.69040	89.64000
6.21200	-4.69040	89.64000
6.21400	-4.60020	89.73000
6.21600	-4.60020	89.73000
6.21800	-4.60020	89.73000
6.22000	-4.69040	89.64000
6.22200	0.00000	0.00000
6.22400	-4.60020	89.73000
6.22600	-4.69040	89.82000
6.22800	-4.78060	89.82000
6.23000	-4.69040	89.82000
6.23200	-4.60020	89.82000
6.23400	-4.51000	89.82000
6.23600	0.00000	0.00000
6.23800	-4.32960	89.82000
6.24000	-4.41980	89.82000
6.24200	-4.41980	89.82000
6.24400	-4.32960	89.91000
6.24600	-4.23940	89.91000
6.24800	-4.32960	89.91000
6.25000	0.00000	0.00000
6.25200	-4.23940	89.73000
6.25400	-4.23940	89.82000
6.25600	-4.41980	89.82000
6.25800	-4.51000	89.91000
6.26000	-4.41980	89.91000
6.26200	-4.32960	89.82000
6.26400	0.00000	0.00000
6.26600	-4.14920	89.91000
6.26800	-4.23940	89.91000
6.27000	-4.23940	89.82000
6.27200	-4.23940	89.91000
6.27400	-4.23940	89.91000
6.27600	-4.32960	90.00000
6.27800	0.00000	0.00000
6.28000	-4.32960	90.00000
6.28200	-4.32960	89.91000
6.28400	-4.23940	89.91000
6.28600	-4.23940	90.00000
6.28800	-4.05900	89.91000
6.29000	-4.32960	89.82000
6.29200	0.00000	0.00000
6.29400	-4.32960	89.91000
6.29600	-4.32960	90.09000
6.29800	-4.32960	90.00000
6.30000	-4.41980	90.00000
6.30200	-4.51000	89.91000
6.30400	-4.60020	89.82000
6.30600	0.00000	0.00000
6.30800	-4.69040	89.91000
6.31000	-4.69040	89.73000
6.31200	-4.78060	89.82000
6.31400	-4.87080	89.73000
6.31600	-4.87080	89.73000
6.31800	-4.78060	89.82000
6.32000	0.00000	0.00000
6.32200	-4.78060	89.82000
6.32400	-4.78060	89.82000
6.32600	-4.78060	89.82000
6.32800	-4.69040	89.82000
6.33000	-4.78060	89.82000
6.33200	-4.60020	0.00000
6.33400	0.00000	0.00000
6.33600	-4.60020	89.82000
6.33800	-4.69040	89.82000
6.34000	-4.60020	89.82000
6.34200	-4.69040	89.82000
6.34400	-4.69040	89.82000
6.34600	-4.60020	89.82000
6.34800	0.00000	0.00000
6.35000	-4.60020	89.73000
6.35200	-4.69040	89.82000
6.35400	-4.60020	89.91000
6.35600	-4.51000	89.82000
6.35800	-4.60020	89.82000
6.36000	-4.51000	89.64000
6.36200	0.00000	0.00000
6.36400	-4.41980	89.64000
6.36600	-4.41980	89.64000
6.36800	-4.51000	89.64000
6.37000	-4.51000	89.64000
6.37200	-4.51000	89.73000
6.37400	-4.60020	89.73000
6.37600	0.00000	0.00000
6.37800	-4.51000	89.82000
6.38000	-4.51000	89.82000
6.38200	-4.51000	89.82000
6.38400	-4.51000	89.82000
6.38600	-4.51000	89.82000
6.38800	-4.51000	89.73000
6.39000	0.00000	0.00000
6.39200	-4.41980	89.82000
6.39400	-4.51000	89.82000
6.39600	-4.60020	89.82000
6.39800	-4.51000	89.82000
6.40000	-4.51000	89.82000
6.40200	-4.51000	89.82000
6.40400	0.00000	0.00000
6.40600	-4.60020	89.73000
6.40800	-4.69040	89.73000
6.41000	-4.78060	89.64000
6.41200	-4.69040	89.73000
6.41400	-4.69040	89.64000
6.41600	-4.69040	89.73000
6.41800	0.00000	0.00000
6.42000	-4.78060	89.73000
6.42200	-4.69040	89.82000
6.42400	-4.60020	89.82000
6.42600	-4.69040	89.82000
6.42800	-4.69040	89.82000
6.43000	-4.69040	89.73000
6.43200	0.00000	0.00000
6.43400	-4.69040	89.82000
6.43600	-4.60020	89.82000
6.43800	-4.69040	89.82000
6.44000	-4.69040	89.82000
6.44200	-4.69040	89.91000
6.44400	-4.78060	89.82000
6.44600	0.00000	0.00000
6.44800	-4.69040	89.82000
6.45000	-4.60020	89.91000
6.45200	-4.51000	89.91000
6.45400	-4.51000	89.91000
6.45600	-4.41980	89.82000
6.45800	-4.41980	89.82000
6.46000	0.00000	0.00000
6.46200	-4.41980	89.82000
6.46400	-4.51000	89.82000
6.46600	-4.41980	89.91000
6.46800	-4.32960	89.91000
6.47000	-4.32960	89.82000
6.47200	-4.41980	89.73000
6.47400	0.00000	0.00000
6.47600	-4.41980	89.64000
6.47800	-4.32960	89.73000
6.48000	-4.32960	89.73000
6.48200	-4.23940	89.64000
6.48400	-4.14920	89.73000
6.48600	-4.14920	89.91000
6.48800	0.00000	0.00000
6.49000	-4.14920	89.82000
6.49200	-4.23940	89.82000
6.49400	-4.23940	89.73000
6.49600	-4.41980	89.73000
6.49800	-4.41980	89.82000
6.50000	-4.60020	89.73000
6.50200	0.00000	0.00000
6.50400	-4.60020	89.73000
6.50600	-4.69040	89.64000
6.50800	-4.69040	89.64000
6.51000	-4.60020	89.64000
6.51200	-4.69040	89.73000
6.51400	-4.69040	89.73000
6.51600	0.00000	0.00000
6.51800	-4.78060	89.73000
6.52000	-4.78060	89.73000
6.52200	-4.78060	89.73000
6.52400	-4.69040	89.73000
6.52600	-4.69040	89.82000
6.52800	-4.78060	89.64000
6.53000	0.00000	0.00000
6.53200	-4.87080	89.64000
6.53400	-4.78060	89.73000
6.53600	-4.78060	89.82000
6.53800	-4.87080	89.73000
6.54000	-4.96100	89.73000
6.54200	-5.05120	89.82000
6.54400	0.00000	0.00000
6.54600	-4.96100	89.91000
6.54800	-4.87080	89.82000
6.55000	-4.78060	89.73000
6.55200	-4.78060	89.82000
6.55400	-4.96100	89.82000
6.55600	-4.87080	89.73000
6.55800	0.00000	0.00000
6.56000	-4.87080	89.73000
6.56200	-4.87080	89.73000
6.56400	-4.87080	89.82000
6.56600	-4.96100	89.91000
6.56800	-4.96100	89.82000
6.57000	-4.96100	89.73000
6.57200	0.00000	0.00000
6.57400	-4.96100	89.82000
6.57600	-5.05120	89.82000
6.57800	-5.05120	89.82000
6.58000	-4.96100	89.91000
6.58200	-4.96100	90.00000
6.58400	-4.96100	89.91000
6.58600	0.00000	0.00000
6.58800	-5.05120	89.73000
6.59000	-5.05120	89.73000
6.59200	-5.05120	89.82000
6.59400	-5.05120	89.82000
6.59600	-4.96100	89.91000
6.59800	-4.96100	90.00000
6.60000	0.00000	0.00000
6.60200	-4.78060	89.91000
6.60400	-4.87080	89.82000
6.60600	-4.78060	89.91000
6.60800	-4.78060	90.00000
6.61000	-4.69040	89.91000
6.61200	-4.69040	90.09000
6.61400	0.00000	0.00000
6.61600	-4.60020	90.00000
6.61800	-4.60020	90.00000
6.62000	-4.60020	89.82000
6.62200	-4.51000	89.82000
6.62400	-4.51000	89.82000
6.62600	-4.32960	89.91000
6.62800	0.00000	0.00000
6.63000	-4.32960	89.82000
6.63200	-4.41980	89.82000
6.63400	-4.32960	89.91000
6.63600	-4.41980	89.82000
6.63800	-4.41980	89.82000
6.64000	-4.41980	89.82000
6.64200	0.00000	0.00000
6.64400	-4.51000	89.82000
6.64600	-4.51000	90.00000
6.64800	0.00000	0.00000
6.65000	-4.51000	89.91000
6.65200	-4.41980	89.82000
6.65400	0.00000	0.00000
6.65600	-4.41980	89.73000
6.65800	-4.51000	89.64000
6.66000	-4.41980	89.73000
6.66200	-4.60020	89.55000
6.66400	-4.51000	89.55000
6.66600	-4.60020	89.46000
6.66800	0.00000	0.00000
6.67000	-4.69040	89.46000
6.67200	-4.60020	89.55000
6.67400	-4.69040	89.55000
6.67600	-4.69040	89.64000
6.67800	-4.78060	89.46000
6.68000	-4.78060	89.46000
6.68200	0.00000	0.00000
6.68400	-4.69040	89.37000
6.68600	-4.78060	89.46000
6.68800	-4.87080	89.46000
6.69000	-4.69040	89.55000
6.69200	-4.69040	89.64000
6.69400	-4.69040	89.55000
6.69600	0.00000	0.00000
6.69800	-4.69040	89.64000
6.70000	-4.69040	89.64000
6.70200	-4.60020	89.73000
6.70400	-4.60020	89.73000
6.70600	-4.60020	89.82000
6.70800	-4.60020	89.82000
6.71000	-4.60020	89.91000
6.71200	0.00000	0.00000
6.71400	-4.69040	89.91000
6.71600	-4.69040	89.91000
6.71800	-4.69040	89.91000
6.72000	-4.60020	89.73000
6.72200	-4.51000	89.73000
6.72400	0.00000	0.00000
6.72600	-4.51000	89.73000
6.72800	-4.51000	89.73000
6.73000	-4.51000	89.73000
6.73200	-4.60020	89.91000
6.73400	-4.60020	89.91000
6.73600	-4.69040	89.82000
6.73800	0.00000	0.00000
6.74000	-4.60020	89.82000
6.74200	-4.69040	89.91000
6.74400	-4.69040	89.91000
6.74600	-4.60020	90.00000
6.74800	-4.60020	89.91000
6.75000	-4.69040	89.91000
6.75200	0.00000	0.00000
6.75400	-4.69040	90.00000
6.75600	-4.78060	90.00000
6.75800	-4.69040	90.00000
6.76000	-4.78060	90.00000
6.76200	-4.87080	90.09000
6.76400	-4.78060	90.09000
6.76600	0.00000	0.00000
6.76800	-4.69040	90.09000
6.77000	-4.78060	90.00000
6.77200	-4.69040	90.00000
6.77400	-4.78060	90.00000
6.77600	-4.78060	90.00000
6.77800	-4.87080	89.82000
6.78000	0.00000	0.00000
6.78200	-4.96100	89.73000
6.78400	-4.87080	89.82000
6.78600	-4.78060	89.91000
6.78800	-4.87080	90.00000
6.79000	-4.96100	90.00000
6.79200	-4.87080	89.82000
6.79400	0.00000	0.00000
6.79600	-4.87080	89.82000
6.79800	-4.78060	89.82000
6.80000	-4.78060	89.73000
6.80200	-4.78060	89.82000
6.80400	-4.69040	89.91000
6.80600	-4.69040	89.91000
6.80800	0.00000	0.00000
6.81000	-4.69040	89.91000
6.81200	-4.69040	89.91000
6.81400	-4.69040	89.91000
6.81600	-4.78060	89.91000
6.81800	-4.69040	89.82000
6.82000	-4.69040	89.73000
6.82200	0.00000	0.00000
6.82400	-4.78060	89.64000
6.82600	-4.87080	89.64000
6.82800	-4.87080	89.64000
6.83000	-4.78060	89.64000
6.83200	-4.78060	89.64000
6.83400	-4.78060	89.64000
6.83600	0.00000	0.00000
6.83800	-4.60020	89.55000
6.84000	-4.60020	89.64000
6.84200	-4.60020	89.64000
6.84400	-4.60020	89.55000
6.84600	-4.60020	89.73000
6.84800	-4.60020	89.55000
6.85000	0.00000	0.00000
6.85200	-4.51000	89.64000
6.85400	-4.60020	89.73000
6.85600	-4.60020	89.73000
6.85800	-4.60020	89.73000
6.86000	-4.60020	89.64000
6.86200	-4.51000	89.64000
6.86400	0.00000	0.00000
6.86600	-4.60020	89.73000
6.86800	-4.60020	89.64000
6.87000	-4.51000	89.64000
6.87200	-4.60020	89.55000
6.87400	-4.51000	89.64000
6.87600	-4.51000	89.73000
6.87800	0.00000	0.00000
6.88000	-4.51000	89.73000
6.88200	-4.51000	89.82000
6.88400	-4.51000	89.82000
6.88600	-4.41980	89.82000
6.88800	-4.41980	89.73000
6.89000	-4.41980	89.64000
6.89200	0.00000	0.00000
6.89400	-4.41980	89.64000
6.89600	-4.60020	89.82000
6.89800	-4.60020	89.82000
6.90000	-4.51000	89.91000
6.90200	-4.51000	89.91000
6.90400	-4.60020	89.91000
6.90600	0.00000	0.00000
6.90800	-4.60020	89.82000
6.91000	-4.51000	89.73000
6.91200	-4.51000	89.73000
6.91400	-4.69040	89.73000
6.91600	-4.78060	89.73000
6.91800	-4.69040	89.91000
6.92000	0.00000	0.00000
6.92200	-4.78060	89.82000
6.92400	-4.78060	89.91000
6.92600	-4.78060	89.91000
6.92800	-4.69040	89.91000
6.93000	-4.69040	89.91000
6.93200	-4.69040	89.82000
6.93400	0.00000	0.00000
6.93600	-4.78060	89.91000
6.93800	-4.78060	89.91000
6.94000	-4.78060	89.91000
6.94200	-4.87080	89.91000
6.94400	-4.78060	89.91000
6.94600	-4.78060	89.82000
6.94800	0.00000	0.00000
6.95000	-4.78060	89.91000
6.95200	-4.69040	89.91000
6.95400	-4.69040	89.82000
6.95600	-4.60020	89.91000
6.95800	-4.60020	89.82000
6.96000	-4.60020	89.73000
6.96200	0.00000	0.00000
6.96400	-4.60020	89.82000
6.96600	-4.60020	89.73000
6.96800	-4.51000	89.73000
6.97000	-4.60020	89.82000
6.97200	-4.60020	89.82000
6.97400	-4.60020	89.73000
6.97600	0.00000	0.00000
6.97800	-4.51000	89.73000
6.98000	-4.60020	89.82000
6.98200	-4.60020	89.82000
6.98400	-4.69040	89.82000
6.98600	-4.60020	89.82000
6.98800	-4.60020	89.73000
6.99000	0.00000	0.00000
6.99200	-4.60020	89.64000
6.99400	-4.60020	89.55000
6.99600	-4.60020	89.46000
6.99800	-4.60020	89.55000
7.00000	-4.69040	89.64000
7.00200	-4.60020	89.64000
7.00400	0.00000	0.00000
7.00600	-4.69040	89.55000
7.00800	-4.60020	89.64000
7.01000	-4.60020	89.64000
7.01200	-4.60020	89.73000
7.01400	-4.60020	89.73000
7.01600	-4.60020	89.82000
7.01800	0.00000	0.00000
7.02000	-4.60020	89.82000
7.02200	-4.69040	89.82000
7.02400	-4.69040	89.82000
7.02600	-4.78060	89.73000
7.02800	-4.87080	89.73000
7.03000	-4.87080	89.73000
7.03200	0.00000	0.00000
7.03400	-4.87080	89.82000
7.03600	-4.87080	89.82000
7.03800	-4.87080	89.82000
7.04000	-4.87080	89.73000
7.04200	-4.87080	89.82000
7.04400	-4.96100	89.73000
7.04600	0.00000	0.00000
7.04800	-4.96100	89.73000
7.05000	-4.96100	89.82000
7.05200	-4.87080	89.73000
7.05400	-4.87080	89.82000
7.05600	-4.87080	89.82000
7.05800	-4.78060	89.82000
7.06000	0.00000	0.00000
7.06200	-4.96100	89.82000
7.06400	-5.05120	89.91000
7.06600	-5.14140	90.00000
7.06800	-5.14140	89.91000
7.07000	-5.05120	89.82000
7.07200	-5.14140	89.82000
7.07400	0.00000	0.00000
7.07600	-5.14140	89.91000
7.07800	-5.05120	90.00000
7.08000	-4.96100	89.91000
7.08200	-4.87080	90.00000
7.08400	-4.87080	90.00000
7.08600	-4.96100	90.00000
7.08800	0.00000	0.00000
7.09000	-4.96100	90.00000
7.09200	-4.87080	90.00000
7.09400	-4.78060	90.00000
7.09600	-4.87080	89.91000
7.09800	-4.96100	89.91000
7.10000	-4.78060	90.00000
7.10200	0.00000	0.00000
7.10400	-4.87080	89.91000
7.10600	-4.87080	89.91000
7.10800	-4.87080	90.00000
7.11000	-4.96100	90.09000
7.11200	-4.96100	90.00000
7.11400	-4.96100	90.00000
7.11600	-4.96100	90.00000
7.11800	-5.05120	90.00000
7.12000	-5.05120	90.00000
7.12200	-4.96100	90.00000
7.12400	-4.96100	89.82000
7.12600	-5.05120	89.91000
7.12800	-5.05120	89.82000
7.13000	0.00000	0.00000
7.13200	-4.96100	89.91000
7.13400	-5.05120	89.91000
7.13600	-5.05120	89.91000
7.13800	-5.05120	89.73000
7.14000	-4.96100	89.73000
7.14200	-5.14140	89.73000
7.14400	0.00000	0.00000
7.14600	-5.05120	89.64000
7.14800	-5.05120	89.64000
7.15000	-5.14140	89.73000
7.15200	-5.23160	89.64000
7.15400	-5.23160	89.55000
7.15600	-5.32180	89.64000
7.15800	0.00000	0.00000
7.16000	-5.23160	89.64000
7.16200	-5.05120	89.64000
7.16400	-5.14140	89.46000
7.16600	-5.14140	89.46000
7.16800	-5.14140	89.46000
7.17000	-5.05120	89.46000
7.17200	0.00000	0.00000
7.17400	-5.05120	89.55000
7.17600	-5.05120	89.55000
7.17800	-5.05120	89.55000
7.18000	-4.96100	89.64000
7.18200	-4.96100	89.64000
7.18400	-4.87080	89.64000
7.18600	0.00000	0.00000
7.18800	-4.87080	89.64000
7.19000	-4.78060	89.73000
7.19200	-4.69040	89.82000
7.19400	-4.69040	89.73000
7.19600	-4.60020	89.64000
7.19800	-4.78060	89.64000
7.20000	0.00000	0.00000
7.20200	-4.78060	89.64000
7.20400	-4.78060	89.55000
7.20600	-4.78060	89.64000
7.20800	-4.69040	89.64000
7.21000	-4.69040	89.64000
7.21200	-4.60020	89.64000
7.21400	0.00000	0.00000
7.21600	-4.60020	89.73000
7.21800	-4.60020	89.73000
7.22000	-4.60020	89.82000
7.22200	-4.69040	89.82000
7.22400	-4.69040	89.91000
7.22600	-4.69040	89.82000
7.22800	0.00000	0.00000
7.23000	-4.60020	89.82000
7.23200	-4.69040	89.82000
7.23400	-4.69040	89.91000
7.23600	-4.78060	89.91000
7.23800	-4.87080	89.91000
7.24000	-4.78060	89.91000
7.24200	0.00000	0.00000
7.24400	-4.87080	89.91000
7.24600	-4.78060	89.82000
7.24800	-4.78060	89.91000
7.25000	-4.69040	89.91000
7.25200	-4.69040	89.82000
7.25400	-4.78060	89.82000
7.25600	0.00000	0.00000
7.25800	-4.69040	89.82000
7.26000	-4.69040	89.82000
7.26200	-4.78060	89.73000
7.26400	-4.69040	89.73000
7.26600	-4.69040	89.91000
7.26800	-4.69040	89.82000
7.27000	0.00000	0.00000
7.27200	-4.69040	89.91000
7.27400	-4.69040	89.82000
7.27600	-4.69040	89.82000
7.27800	-4.78060	89.91000
7.28000	-4.69040	89.91000
7.28200	-4.87080	89.73000
7.28400	0.00000	0.00000
7.28600	-4.96100	89.82000
7.28800	-4.96100	89.82000
7.29000	-4.96100	89.73000
7.29200	-4.87080	89.73000
7.29400	-4.96100	89.64000
7.29600	-5.05120	89.64000
7.29800	0.00000	0.00000
7.30000	-4.96100	89.64000
7.30200	-4.96100	89.82000
7.30400	-5.05120	89.82000
7.30600	-5.05120	89.82000
7.30800	-4.96100	89.82000
7.31000	-4.87080	89.82000
7.31200	0.00000	0.00000
7.31400	-4.96100	89.91000
7.31600	-4.96100	89.82000
7.31800	-5.05120	89.73000
7.32000	-5.14140	89.64000
7.32200	-5.14140	89.73000
7.32400	-5.14140	89.73000
7.32600	0.00000	0.00000
7.32800	-5.05120	89.73000
7.33000	-5.05120	89.82000
7.33200	-5.05120	89.82000
7.33400	-4.96100	89.82000
7.33600	-4.96100	89.82000
7.33800	-4.87080	89.82000
7.34000	0.00000	0.00000
7.34200	-4.96100	89.82000
7.34400	-4.96100	89.82000
7.34600	-4.87080	89.73000
7.34800	-4.69040	89.82000
7.35000	-4.69040	89.73000
7.35200	-4.60020	89.91000
7.35400	0.00000	0.00000
7.35600	-4.60020	89.91000
7.35800	-4.60020	89.91000
7.36000	-4.60020	89.91000
7.36200	-4.60020	89.91000
7.36400	-4.51000	89.91000
7.36600	-4.23940	89.91000
7.36800	0.00000	0.00000
7.37000	-4.23940	89.91000
7.37200	-4.23940	89.91000
7.37400	-4.14920	90.00000
7.37600	-4.23940	90.00000
7.37800	-4.23940	90.00000
7.38000	-4.32960	89.91000
7.38200	0.00000	0.00000
7.38400	-4.32960	89.91000
7.38600	-4.23940	89.82000
7.38800	-4.14920	89.91000
7.39000	-4.14920	89.91000
7.39200	-4.23940	89.82000
7.39400	-4.23940	89.82000
7.39600	0.00000	0.00000
7.39800	-4.23940	89.82000
7.40000	-4.14920	89.91000
7.40200	-4.14920	89.91000
7.40400	-4.14920	89.91000
7.40600	-4.23940	90.00000
7.40800	-4.23940	89.91000
7.41000	-4.23940	89.91000
7.41200	-4.23940	89.91000
7.41400	-4.32960	89.82000
7.41600	-4.32960	89.82000
7.41800	-4.32960	89.91000
7.42000	-4.32960	89.91000
7.42200	-4.51000	89.73000
7.42400	0.00000	0.00000
7.42600	-4.51000	89.73000
7.42800	-4.41980	89.64000
7.43000	-4.41980	89.64000
7.43200	-4.60020	89.73000
7.43400	-4.60020	89.82000
7.43600	-4.51000	89.91000
7.43800	0.00000	0.00000
7.44000	-4.60020	89.82000
7.44200	-4.51000	89.82000
7.44400	-4.51000	89.82000
7.44600	-4.60020	89.82000
7.44800	-4.51000	89.82000
7.45000	-4.60020	89.64000
7.45200	0.00000	0.00000
7.45400	-4.60020	89.73000
7.45600	-4.51000	89.73000
7.45800	-4.51000	89.73000
7.46000	-4.51000	89.73000
7.46200	-4.60020	89.64000
7.46400	-4.60020	89.64000
7.46600	0.00000	0.00000
7.46800	-4.51000	89.73000
7.47000	-4.60020	89.73000
7.47200	-4.51000	89.73000
7.47400	-4.60020	89.64000
7.47600	-4.60020	89.73000
7.47800	-4.41980	89.64000
7.48000	0.00000	0.00000
7.48200	-4.41980	89.73000
7.48400	-4.41980	89.73000
7.48600	-4.41980	89.73000
7.48800	-4.41980	89.64000
7.49000	-4.23940	89.64000
7.49200	-4.41980	89.82000
7.49400	0.00000	0.00000
7.49600	-4.41980	89.82000
7.49800	-4.41980	89.82000
7.50000	-4.32960	89.73000
7.50200	-4.32960	89.82000
7.50400	-4.23940	89.82000
7.50600	-4.23940	89.73000
7.50800	0.00000	0.00000
7.51000	-4.32960	89.73000
7.51200	-4.32960	89.82000
7.51400	-4.41980	89.73000
7.51600	-4.32960	89.73000
7.51800	-4.41980	89.73000
7.52000	-4.51000	89.82000
7.52200	0.00000	0.00000
7.52400	-4.51000	89.82000
7.52600	-4.60020	89.91000
7.52800	-4.60020	89.91000
7.53000	-4.69040	89.91000
7.53200	-4.69040	89.82000
7.53400	-4.78060	89.73000
7.53600	0.00000	0.00000
7.53800	-4.87080	89.64000
7.54000	-4.96100	89.73000
7.54200	-4.78060	89.73000
7.54400	-4.87080	89.82000
7.54600	-4.96100	89.82000
7.54800	-4.96100	89.82000
7.55000	0.00000	0.00000
7.55200	-5.05120	89.91000
7.55400	-5.05120	89.82000
7.55600	-5.14140	89.73000
7.55800	-5.05120	89.73000
7.56000	-5.05120	89.73000
7.56200	-5.05120	89.73000
7.56400	0.00000	0.00000
7.56600	-5.05120	89.64000
7.56800	-5.05120	89.73000
7.57000	-4.96100	89.82000
7.57200	-5.05120	89.82000
7.57400	-5.05120	89.82000
7.57600	-5.14140	89.73000
7.57800	0.00000	0.00000
7.58000	-5.14140	89.91000
7.58200	-5.14140	90.00000
7.58400	-5.23160	89.91000
7.58600	-5.23160	89.82000
7.58800	-5.14140	89.91000
7.59000	-5.05120	89.82000
7.59200	0.00000	0.00000
7.59400	-5.05120	89.82000
7.59600	-5.05120	89.73000
7.59800	-5.05120	89.82000
7.60000	-5.05120	89.73000
7.60200	-5.23160	89.82000
7.60400	-5.32180	89.73000
7.60600	0.00000	0.00000
7.60800	-5.41200	89.73000
7.61000	-5.41200	89.73000
7.61200	-5.41200	89.73000
7.61400	-5.32180	89.82000
7.61600	-5.41200	89.73000
7.61800	-5.32180	89.82000
7.62000	0.00000	0.00000
7.62200	-5.32180	89.82000
7.62400	-5.23160	89.91000
7.62600	-5.23160	89.91000
7.62800	-5.23160	89.91000
7.63000	-5.32180	89.91000
7.63200	-5.14140	89.91000
7.63400	0.00000	0.00000
7.63600	-5.05120	89.91000
7.63800	-5.14140	89.91000
7.64000	-5.23160	89.91000
7.64200	-5.14140	89.91000
7.64400	-5.14140	89.91000
7.64600	-4.96100	90.00000
7.64800	-4.96100	89.82000
7.65000	-4.87080	89.73000
7.65200	-4.78060	89.73000
7.65400	-4.60020	89.73000
7.65600	-4.69040	89.82000
7.65800	-4.69040	89.82000
7.66000	0.00000	0.00000
7.66200	-4.60020	89.73000
7.66400	-4.60020	89.73000
7.66600	-4.51000	89.91000
7.66800	-4.41980	89.91000
7.67000	-4.41980	89.91000
7.67200	-4.51000	90.00000
7.67400	0.00000	0.00000
7.67600	-4.51000	89.91000
7.67800	-4.51000	89.91000
7.68000	-4.51000	89.91000
7.68200	-4.51000	89.91000
7.68400	-4.60020	90.00000
7.68600	-4.60020	90.00000
7.68800	0.00000	0.00000
7.69000	-4.60020	89.82000
7.69200	-4.60020	89.91000
7.69400	-4.69040	89.91000
7.69600	-4.69040	89.82000
7.69800	-4.87080	89.73000
7.70000	-4.96100	89.82000
7.70200	0.00000	0.00000
7.70400	-4.96100	89.73000
7.70600	-4.96100	89.82000
7.70800	-5.14140	89.91000
7.71000	-5.14140	89.91000
7.71200	-5.23160	89.82000
7.71400	-5.14140	89.82000
7.71600	0.00000	0.00000
7.71800	-5.14140	89.82000
7.72000	-5.14140	89.82000
7.72200	-5.14140	89.73000
7.72400	-5.14140	89.82000
7.72600	-5.05120	89.91000
7.72800	-4.96100	89.91000
7.73000	0.00000	0.00000
7.73200	-4.96100	89.91000
7.73400	-4.87080	89.73000
7.73600	-4.78060	89.73000
7.73800	-4.78060	89.73000
7.74000	-4.69040	89.91000
7.74200	-4.60020	89.91000
7.74400	0.00000	0.00000
7.74600	-4.69040	89.91000
7.74800	-4.51000	90.09000
7.75000	-4.51000	90.00000
7.75200	-4.51000	89.82000
7.75400	-4.41980	89.73000
7.75600	-4.14920	89.82000
7.75800	0.00000	0.00000
7.76000	-4.05900	89.91000
7.76200	-4.05900	90.00000
7.76400	-3.96880	89.82000
7.76600	-3.96880	89.82000
7.76800	-4.05900	89.73000
7.77000	-4.14920	89.73000
7.77200	0.00000	0.00000
7.77400	-4.05900	89.64000
7.77600	-3.96880	89.73000
7.77800	-3.87860	89.82000
7.78000	-3.78840	89.82000
7.78200	-3.78840	89.82000
7.78400	-3.87860	89.91000
7.78600	0.00000	0.00000
7.78800	-3.87860	89.91000
7.79000	-3.87860	89.91000
7.79200	-3.78840	89.82000
7.79400	-3.78840	89.82000
7.79600	-3.78840	89.82000
7.79800	-3.78840	89.82000
7.80000	0.00000	0.00000
7.80200	-3.60800	89.91000
7.80400	-3.60800	89.82000
7.80600	-3.60800	89.82000
7.80800	-3.69820	89.73000
7.81000	-3.69820	89.73000
7.81200	-3.60800	89.91000
7.81400	0.00000	0.00000
7.81600	-3.60800	89.82000
7.81800	-3.51780	89.82000
7.82000	-3.42760	89.64000
7.82200	-3.42760	89.73000
7.82400	-3.51780	89.64000
7.82600	-3.33740	89.82000
7.82800	0.00000	0.00000
7.83000	-3.42760	89.73000
7.83200	-3.33740	89.91000
7.83400	-3.33740	89.82000
7.83600	-3.24720	89.82000
7.83800	-3.15700	89.82000
7.84000	-3.24720	89.64000
7.84200	0.00000	0.00000
7.84400	-3.24720	89.64000
7.84600	-3.24720	89.64000
7.84800	-3.24720	89.73000
7.85000	-3.24720	89.64000
7.85200	-3.24720	89.64000
7.85400	-3.24720	89.64000
7.85600	0.00000	0.00000
7.85800	-3.33740	89.64000
7.86000	-3.42760	89.64000
7.86200	-3.42760	89.64000
7.86400	-3.42760	89.64000
7.86600	-3.51780	89.64000
7.86800	-3.51780	89.64000
7.87000	0.00000	0.00000
7.87200	-3.51780	89.64000
7.87400	-3.42760	89.73000
7.87600	-3.51780	89.73000
7.87800	-3.51780	89.73000
7.88000	-3.60800	89.64000
7.88200	-3.69820	89.64000
7.88400	0.00000	0.00000
7.88600	-3.69820	89.55000
7.88800	-3.60800	89.64000
7.89000	-3.42760	89.64000
7.89200	-3.42760	89.64000
7.89400	-3.24720	89.73000
7.89600	-3.15700	89.73000
7.89800	0.00000	0.00000
7.90000	-2.97660	89.73000
7.90200	-2.79620	89.73000
7.90400	-2.79620	89.73000
7.90600	-2.70600	89.64000
7.90800	-2.61580	89.73000
7.91000	0.00000	0.00000
7.91200	0.00000	0.00000
7.91400	-2.61580	89.82000
7.91600	-2.70600	89.91000
7.91800	-2.70600	89.82000
7.92000	-2.79620	89.82000
7.92200	-2.79620	89.82000
7.92400	-2.79620	89.82000
7.92600	0.00000	0.00000
7.92800	-2.79620	89.73000
7.93000	-2.79620	89.82000
7.93200	-2.79620	89.82000
7.93400	-2.88640	89.82000
7.93600	-2.88640	89.82000
7.93800	-2.88640	89.73000
7.94000	0.00000	0.00000
7.94200	-2.97660	89.82000
7.94400	-3.06680	89.73000
7.94600	-3.15700	89.64000
7.94800	-3.33740	89.73000
7.95000	-3.42760	89.73000
7.95200	-3.60800	89.73000
7.95400	0.00000	0.00000
7.95600	-3.69820	89.64000
7.95800	-3.78840	89.73000
7.96000	-3.69820	89.82000
7.96200	-3.69820	89.82000
7.96400	-3.87860	89.73000
7.96600	-3.87860	89.73000
7.96800	0.00000	0.00000
7.97000	-3.87860	89.73000
7.97200	-3.96880	89.73000
7.97400	-4.05900	89.73000
7.97600	-3.96880	89.73000
7.97800	0.00000	0.00000
7.98000	-4.05900	89.64000
7.98200	0.00000	0.00000
7.98400	-3.96880	89.55000
7.98600	-3.96880	89.55000
7.98800	-4.14920	89.55000
7.99000	-4.14920	89.46000
7.99200	-4.14920	89.55000
7.99400	-3.96880	89.55000
7.99600	-4.05900	89.55000
7.99800	0.00000	0.00000
8.00000	-4.05900	89.55000
8.00200	-4.05900	89.73000
8.00400	-3.96880	89.64000
8.00600	-3.78840	89.64000
8.00800	-3.78840	89.73000
8.01000	0.00000	0.00000
8.01200	-3.87860	89.73000
8.01400	-3.87860	89.64000
8.01600	-3.87860	89.55000
8.01800	-3.78840	89.55000
8.02000	-3.78840	89.55000
8.02200	-3.60800	89.73000
8.02400	0.00000	0.00000
8.02600	-3.69820	89.64000
8.02800	-3.69820	89.73000
8.03000	-3.69820	89.82000
8.03200	-3.60800	89.82000
8.03400	-3.51780	89.91000
8.03600	-3.51780	89.82000
8.03800	0.00000	0.00000
8.04000	-3.42760	89.91000
8.04200	-3.33740	89.73000
8.04400	-3.33740	89.91000
8.04600	-3.42760	89.91000
8.04800	-3.51780	89.91000
8.05000	-3.42760	90.00000
8.05200	0.00000	0.00000
8.05400	-3.42760	90.00000
8.05600	-3.51780	90.00000
8.05800	-3.51780	90.18000
8.06000	-3.60800	90.09000
8.06200	-3.51780	90.00000
8.06400	-3.33740	90.00000
8.06600	0.00000	0.00000
8.06800	-3.42760	90.00000
8.07000	-3.42760	90.00000
8.07200	-3.33740	90.00000
8.07400	-3.33740	90.00000
8.07600	-3.33740	90.00000
8.07800	-3.15700	90.00000
8.08000	0.00000	0.00000
8.08200	-3.24720	90.00000
8.08400	-3.06680	90.09000
8.08600	0.00000	0.00000
8.08800	-3.06680	90.00000
8.09000	-3.06680	90.00000
8.09200	-2.97660	90.00000
8.09400	0.00000	0.00000
8.09600	-2.97660	90.00000
8.09800	-2.97660	90.00000
8.10000	-3.06680	90.00000
8.10200	-3.06680	89.91000
8.10400	0.00000	0.00000
8.10600	-2.97660	89.91000
8.10800	0.00000	0.00000
8.11000	-2.97660	89.91000
8.11200	-2.88640	89.82000
8.11400	-2.88640	89.82000
8.11600	-2.79620	89.82000
8.11800	-2.70600	89.82000
8.12000	-2.70600	89.82000
8.12200	0.00000	0.00000
8.12400	-2.70600	89.73000
8.12600	0.00000	0.00000
8.12800	-2.61580	89.82000
8.13000	-2.61580	89.73000
8.13200	-2.61580	89.73000
8.13400	-2.43540	89.73000
8.13600	0.00000	0.00000
8.13800	-2.43540	89.73000
8.14000	-2.34520	89.73000
8.14200	-2.43540	89.64000
8.14400	-2.43540	89.64000
8.14600	-2.34520	89.64000
8.14800	-2.52560	89.73000
8.15000	0.00000	0.00000
8.15200	-2.43540	89.91000
8.15400	-2.61580	89.91000
8.15600	-2.61580	89.82000
8.15800	-2.52560	89.73000
8.16000	-2.52560	89.73000
8.16200	-2.61580	89.64000
8.16400	0.00000	0.00000
8.16600	-2.61580	89.64000
8.16800	-2.70600	89.64000
8.17000	-2.70600	89.64000
8.17200	-2.79620	89.73000
8.17400	-2.70600	89.82000
8.17600	-2.70600	89.82000
8.17800	0.00000	0.00000
8.18000	-2.70600	89.82000
8.18200	-2.70600	89.91000
8.18400	-2.70600	89.91000
8.18600	-2.61580	89.91000
8.18800	-2.61580	90.00000
8.19000	-2.52560	89.82000
8.19200	0.00000	0.00000
8.19400	-2.43540	89.91000
8.19600	-2.52560	89.91000
8.19800	-2.61580	89.91000
8.20000	-2.52560	90.09000
8.20200	-2.43540	90.00000
8.20400	-2.25500	89.82000
8.20600	0.00000	0.00000
8.20800	-2.25500	90.00000
8.21000	-2.25500	90.00000
8.21200	-2.25500	90.00000
8.21400	-2.25500	89.91000
8.21600	-2.07460	89.91000
8.21800	-2.07460	89.91000
8.22000	0.00000	0.00000
8.22200	-2.16480	90.00000
8.22400	-2.07460	90.00000
8.22600	-2.16480	90.00000
8.22800	-2.16480	90.00000
8.23000	-2.25500	90.09000
8.23200	-2.16480	90.18000
8.23400	0.00000	0.00000
8.23600	-2.25500	90.18000
8.23800	-2.25500	90.27000
8.24000	-2.25500	90.27000
8.24200	-2.34520	90.27000
8.24400	-2.43540	90.27000
8.24600	-2.61580	90.09000
8.24800	0.00000	0.00000
8.25000	-2.61580	90.09000
8.25200	-2.61580	90.09000
8.25400	-2.61580	90.09000
8.25600	-2.43540	90.18000
8.25800	-2.43540	90.09000
8.26000	-2.34520	90.09000
8.26200	0.00000	0.00000
8.26400	-2.43540	90.09000
8.26600	-2.34520	90.00000
8.26800	-2.25500	90.09000
8.27000	-2.16480	90.00000
8.27200	-2.07460	90.18000
8.27400	-2.07460	89.91000
8.27600	0.00000	0.00000
8.27800	-1.80400	90.00000
8.28000	-1.89420	90.00000
8.28200	-1.98440	90.00000
8.28400	-1.89420	90.00000
8.28600	-1.89420	89.91000
8.28800	-1.98440	89.82000
8.29000	0.00000	0.00000
8.29200	-1.89420	89.73000
8.29400	-1.89420	89.73000
8.29600	-1.98440	89.73000
8.29800	-1.98440	89.64000
8.30000	-1.89420	89.55000
8.30200	-1.89420	89.64000
8.30400	0.00000	0.00000
8.30600	-1.80400	89.73000
8.30800	-1.80400	89.64000
8.31000	-1.89420	89.73000
8.31200	-1.89420	89.73000
8.31400	-1.89420	89.73000
8.31600	-1.98440	89.82000
8.31800	0.00000	0.00000
8.32000	-1.98440	89.82000
8.32200	-1.98440	89.82000
8.32400	-1.98440	89.82000
8.32600	-1.98440	89.82000
8.32800	-2.07460	89.82000
8.33000	-2.07460	89.91000
8.33200	0.00000	0.00000
8.33400	-2.16480	89.91000
8.33600	-2.16480	90.00000
8.33800	-2.07460	89.91000
8.34000	-2.07460	89.91000
8.34200	-1.98440	89.73000
8.34400	-1.98440	89.73000
8.34600	0.00000	0.00000
8.34800	-1.98440	89.82000
8.35000	-2.07460	89.82000
8.35200	-2.07460	89.82000
8.35400	-2.07460	89.82000
8.35600	-1.89420	89.82000
8.35800	-1.71380	90.00000
8.36000	0.00000	0.00000
8.36200	-1.62360	89.91000
8.36400	-1.53340	90.00000
8.36600	-1.53340	90.00000
8.36800	-1.53340	90.00000
8.37000	-1.53340	90.00000
8.37200	-1.44320	90.09000
8.37400	0.00000	0.00000
8.37600	-1.35300	90.18000
8.37800	-1.35300	90.18000
8.38000	-1.35300	90.09000
8.38200	-1.44320	90.09000
8.38400	-1.44320	90.09000
8.38600	-1.44320	90.09000
8.38800	0.00000	0.00000
8.39000	-1.53340	90.09000
8.39200	-1.62360	90.00000
8.39400	-1.71380	90.00000
8.39600	-1.71380	90.00000
8.39800	-1.71380	90.00000
8.40000	-1.71380	90.18000
8.40200	0.00000	0.00000
8.40400	-1.62360	90.18000
8.40600	-1.80400	90.18000
8.40800	-1.80400	90.18000
8.41000	-1.80400	90.09000
8.41200	-1.80400	90.09000
8.41400	-1.71380	90.09000
8.41600	0.00000	0.00000
8.41800	-1.80400	90.09000
8.42000	-1.89420	90.00000
8.42200	-1.80400	90.00000
8.42400	-1.80400	90.09000
8.42600	-1.80400	89.91000
8.42800	-1.80400	89.91000
8.43000	0.00000	0.00000
8.43200	-1.71380	90.00000
8.43400	-1.62360	90.00000
8.43600	-1.62360	90.00000
8.43800	-1.62360	90.00000
8.44000	-1.53340	89.91000
8.44200	-1.71380	89.91000
8.44400	0.00000	0.00000
8.44600	-1.71380	89.82000
8.44800	-1.53340	89.82000
8.45000	-1.53340	89.91000
8.45200	-1.62360	89.91000
8.45400	-1.89420	89.91000
8.45600	-1.89420	90.00000
8.45800	0.00000	0.00000
8.46000	-1.89420	90.00000
8.46200	-1.80400	89.91000
8.46400	-1.80400	89.91000
8.46600	-1.80400	89.82000
8.46800	-1.80400	89.91000
8.47000	-1.89420	90.00000
8.47200	0.00000	0.00000
8.47400	-1.71380	90.00000
8.47600	-1.71380	90.00000
8.47800	-1.89420	89.82000
8.48000	-1.89420	89.64000
8.48200	-1.71380	89.73000
8.48400	-1.71380	89.82000
8.48600	0.00000	0.00000
8.48800	-1.62360	89.73000
8.49000	-1.53340	89.82000
8.49200	-1.62360	89.91000
8.49400	-1.62360	89.91000
8.49600	-1.62360	89.82000
8.49800	-1.53340	89.73000
8.50000	0.00000	0.00000
8.50200	-1.62360	89.73000
8.50400	-1.44320	89.82000
8.50600	-1.44320	89.91000
8.50800	-1.44320	89.82000
8.51000	-1.62360	89.91000
8.51200	-1.62360	89.91000
8.51400	0.00000	0.00000
8.51600	-1.71380	90.00000
8.51800	-1.71380	89.91000
8.52000	-1.80400	90.00000
8.52200	-1.89420	90.00000
8.52400	-1.98440	90.00000
8.52600	-1.89420	90.18000
8.52800	0.00000	0.00000
8.53000	-1.98440	90.18000
8.53200	-1.98440	90.18000
8.53400	-1.98440	90.09000
8.53600	-1.98440	90.18000
8.53800	-2.07460	90.09000
8.54000	-2.07460	90.18000
8.54200	0.00000	0.00000
8.54400	-2.07460	90.18000
8.54600	-2.16480	90.18000
8.54800	-2.25500	90.27000
8.55000	-2.25500	90.18000
8.55200	-2.16480	90.18000
8.55400	-2.16480	90.18000
8.55600	0.00000	0.00000
8.55800	-2.16480	90.18000
8.56000	-2.16480	90.18000
8.56200	-2.16480	90.18000
8.56400	-2.16480	90.09000
8.56600	-2.25500	90.18000
8.56800	-2.25500	90.09000
8.57000	0.00000	0.00000
8.57200	-2.25500	90.09000
8.57400	-2.16480	90.00000
8.57600	-2.16480	90.09000
8.57800	-2.25500	90.09000
8.58000	-2.16480	90.00000
8.58200	-2.25500	90.00000
8.58400	0.00000	0.00000
8.58600	-2.25500	90.00000
8.58800	-2.16480	90.00000
8.59000	-2.16480	90.00000
8.59200	-2.34520	90.00000
8.59400	-2.34520	90.00000
8.59600	-2.43540	89.91000
8.59800	0.00000	0.00000
8.60000	-2.61580	89.91000
8.60200	-2.61580	90.00000
8.60400	-2.61580	90.00000
8.60600	-2.52560	89.91000
8.60800	-2.70600	89.91000
8.61000	-2.70600	89.91000
8.61200	0.00000	0.00000
8.61400	-2.79620	89.91000
8.61600	0.00000	0.00000
8.61800	-2.79620	89.91000
8.62000	-2.88640	89.82000
8.62200	-2.88640	89.82000
8.62400	-2.79620	89.82000
8.62600	0.00000	0.00000
8.62800	-2.70600	89.64000
8.63000	-2.70600	89.64000
8.63200	-2.61580	89.64000
8.63400	-2.61580	89.64000
8.63600	-2.52560	89.55000
8.63800	-2.34520	89.82000
8.64000	0.00000	0.00000
8.64200	-2.25500	89.82000
8.64400	-2.25500	89.82000
8.64600	-2.25500	89.82000
8.64800	-2.34520	89.64000
8.65000	-2.25500	89.73000
8.65200	-2.16480	89.73000
8.65400	-2.16480	89.73000
8.65600	-2.07460	89.73000
8.65800	-2.07460	89.91000
8.66000	-2.07460	89.91000
8.66200	-1.98440	89.91000
8.66400	-2.07460	89.82000
8.66600	0.00000	0.00000
8.66800	-2.07460	89.91000
8.67000	-2.07460	89.82000
8.67200	-1.89420	89.91000
8.67400	-1.89420	89.91000
8.67600	-1.98440	89.82000
8.67800	-1.89420	90.00000
8.68000	0.00000	0.00000
8.68200	-1.80400	90.00000
8.68400	-1.89420	90.00000
8.68600	-1.98440	89.91000
8.68800	-1.98440	90.00000
8.69000	-1.98440	90.00000
8.69200	-2.16480	89.91000
8.69400	0.00000	0.00000
8.69600	-2.16480	89.91000
8.69800	-2.16480	89.91000
8.70000	-2.16480	89.91000
8.70200	-2.25500	89.91000
8.70400	-2.34520	89.82000
8.70600	-2.34520	89.91000
8.70800	0.00000	0.00000
8.71000	-2.34520	89.91000
8.71200	-2.34520	90.09000
8.71400	-2.34520	90.09000
8.71600	0.00000	0.00000
8.71800	-2.43540	90.09000
8.72000	-2.43540	90.00000
8.72200	0.00000	0.00000
8.72400	-2.25500	90.09000
8.72600	-2.25500	90.00000
8.72800	0.00000	0.00000
8.73000	-2.16480	90.09000
8.73200	-2.16480	90.09000
8.73400	-2.07460	90.09000
8.73600	0.00000	0.00000
8.73800	-1.98440	90.09000
8.74000	-1.98440	90.09000
8.74200	-1.89420	90.09000
8.74400	-1.80400	90.09000
8.74600	-1.80400	90.09000
8.74800	-1.80400	90.09000
8.75000	-1.80400	89.91000
8.75200	0.00000	0.00000
8.75400	-1.80400	89.91000
8.75600	-1.71380	89.91000
8.75800	-1.71380	89.91000
8.76000	-1.62360	89.91000
8.76200	-1.53340	89.91000
8.76400	0.00000	0.00000
8.76600	-1.71380	89.91000
8.76800	-1.89420	89.91000
8.77000	-1.80400	90.00000
8.77200	-1.71380	90.00000
8.77400	-1.53340	89.91000
8.77600	-1.44320	90.00000
8.77800	0.00000	0.00000
8.78000	-1.53340	89.91000
8.78200	-1.26280	90.00000
8.78400	-1.17260	89.91000
8.78600	-1.08240	89.82000
8.78800	-1.17260	89.91000
8.79000	-0.99220	89.82000
8.79200	0.00000	0.00000
8.79400	-0.99220	89.73000
8.79600	-0.90200	89.64000
8.79800	-0.81180	89.73000
8.80000	-0.72160	89.91000
8.80200	-0.54120	89.82000
8.80400	-0.72160	89.82000
8.80600	0.00000	0.00000
8.80800	-0.63140	89.82000
8.81000	-0.54120	89.73000
8.81200	-0.36080	89.82000
8.81400	-0.36080	89.82000
8.81600	-0.45100	89.82000
8.81800	-0.36080	89.73000
8.82000	0.00000	0.00000
8.82200	-0.27060	89.82000
8.82400	-0.27060	89.82000
8.82600	-0.18040	89.82000
8.82800	0.00000	89.91000
8.83000	-0.18040	90.00000
8.83200	0.00000	90.00000
8.83400	0.00000	0.00000
8.83600	0.00000	89.91000
8.83800	0.00000	89.91000
8.84000	0.00000	89.91000
8.84200	0.00000	89.91000
8.84400	0.00000	90.00000
8.84600	0.00000	89.91000
8.84800	0.00000	0.00000
8.85000	0.00000	89.91000
8.85200	0.00000	90.00000
8.85400	0.09020	90.09000
8.85600	0.09020	90.00000
8.85800	0.09020	90.09000
8.86000	0.09020	90.09000
8.86200	0.00000	0.00000
8.86400	0.09020	90.00000
8.86600	0.00000	90.09000
8.86800	0.00000	90.09000
8.87000	0.00000	90.09000
8.87200	0.09020	90.00000
8.87400	0.09020	90.09000
8.87600	0.00000	0.00000
8.87800	0.09020	90.09000
8.88000	0.00000	90.09000
8.88200	0.00000	90.09000
8.88400	0.00000	90.09000
8.88600	0.00000	90.09000
8.88800	0.09020	90.18000
8.89000	0.00000	0.00000
8.89200	0.00000	90.09000
8.89400	0.09020	90.09000
8.89600	0.18040	90.09000
8.89800	0.00000	90.00000
8.90000	0.09020	90.18000
8.90200	0.09020	90.00000
8.90400	0.00000	0.00000
8.90600	0.00000	90.00000
8.90800	0.09020	90.00000
8.91000	0.00000	90.00000
8.91200	0.18040	90.09000
8.91400	0.00000	0.00000
8.91600	0.18040	89.91000
8.91800	0.00000	0.00000
8.92000	0.18040	89.91000
8.92200	0.18040	89.91000
8.92400	0.27060	90.00000
8.92600	0.36080	90.00000
8.92800	0.36080	89.91000
8.93000	0.27060	89.91000
8.93200	0.00000	0.00000
8.93400	0.27060	89.91000
8.93600	0.45100	90.00000
8.93800	0.00000	0.00000
8.94000	0.45100	89.82000
8.94200	0.45100	89.82000
8.94400	0.54120	89.73000
8.94600	0.00000	0.00000
8.94800	0.45100	89.64000
8.95000	0.45100	89.73000
8.95200	0.63140	89.82000
8.95400	0.00000	0.00000
8.95600	0.63140	89.82000
8.95800	0.54120	89.82000
8.96000	0.00000	0.00000
8.96200	0.54120	89.73000
8.96400	0.63140	89.73000
8.96600	0.63140	89.82000
8.96800	0.63140	89.91000
8.97000	0.54120	89.91000
8.97200	0.54120	89.82000
8.97400	0.00000	0.00000
8.97600	0.54120	89.82000
8.97800	0.72160	89.73000
8.98000	0.72160	89.73000
8.98200	0.63140	89.73000
8.98400	0.63140	89.73000
8.98600	0.63140	89.73000
8.98800	0.00000	0.00000
8.99000	0.63140	89.73000
8.99200	0.54120	89.73000
8.99400	0.63140	89.73000
8.99600	0.54120	89.82000
8.99800	0.63140	89.82000
9.00000	0.54120	89.82000
9.00200	0.00000	0.00000
9.00400	0.72160	89.82000
9.00600	0.72160	89.91000
9.00800	0.81180	89.91000
9.01000	0.72160	90.00000
9.01200	0.72160	90.00000
9.01400	0.90200	90.00000
9.01600	0.00000	0.00000
9.01800	0.99220	89.91000
9.02000	1.08240	89.91000
9.02200	0.00000	0.00000
9.02400	0.99220	89.82000
9.02600	0.99220	89.91000
9.02800	0.90200	90.09000
9.03000	0.00000	0.00000
9.03200	0.99220	90.18000
9.03400	0.90200	90.09000
9.03600	0.90200	90.00000
9.03800	0.90200	89.91000
9.04000	0.90200	89.91000
9.04200	0.81180	90.00000
9.04400	0.00000	0.00000
9.04600	0.90200	90.09000
9.04800	0.90200	89.91000
9.05000	0.72160	89.91000
9.05200	0.72160	89.91000
9.05400	0.72160	89.91000
9.05600	0.72160	90.00000
9.05800	0.00000	0.00000
9.06000	0.81180	90.09000
9.06200	0.81180	90.09000
9.06400	0.90200	90.09000
9.06600	0.90200	90.09000
9.06800	0.90200	90.09000
9.07000	0.90200	90.09000
9.07200	0.00000	0.00000
9.07400	0.99220	90.09000
9.07600	1.08240	90.09000
9.07800	0.99220	90.00000
9.08000	0.99220	90.00000
9.08200	0.90200	90.00000
9.08400	0.99220	90.09000
9.08600	0.00000	0.00000
9.08800	1.08240	90.00000
9.09000	0.90200	90.00000
9.09200	0.90200	90.00000
9.09400	0.90200	90.00000
9.09600	0.90200	89.91000
9.09800	0.00000	0.00000
9.10000	0.00000	0.00000
9.10200	0.81180	89.82000
9.10400	0.90200	89.82000
9.10600	0.99220	89.82000
9.10800	0.99220	89.91000
9.11000	1.08240	89.91000
9.11200	0.90200	90.00000
9.11400	0.90200	90.00000
9.11600	0.90200	90.00000
9.11800	0.99220	89.82000
9.12000	0.00000	0.00000
9.12200	0.90200	89.91000
9.12400	0.99220	89.91000
9.12600	0.90200	89.82000
9.12800	0.00000	0.00000
9.13000	0.90200	89.82000
9.13200	0.99220	89.82000
9.13400	0.90200	89.82000
9.13600	0.90200	89.82000
9.13800	1.08240	89.73000
9.14000	0.00000	0.00000
9.14200	0.00000	0.00000
9.14400	1.08240	89.82000
9.14600	1.08240	89.73000
9.14800	1.17260	89.82000
9.15000	0.99220	89.82000
9.15200	1.08240	89.91000
9.15400	1.17260	89.91000
9.15600	0.00000	0.00000
9.15800	1.17260	89.82000
9.16000	1.17260	89.91000
9.16200	1.26280	90.00000
9.16400	1.26280	90.00000
9.16600	1.26280	90.00000
9.16800	1.26280	89.91000
9.17000	0.00000	89.91000
9.17200	1.26280	89.91000
9.17400	1.26280	90.18000
9.17600	1.44320	90.09000
9.17800	1.44320	90.00000
9.18000	1.35300	90.00000
9.18200	1.53340	90.09000
9.18400	0.00000	0.00000
9.18600	1.44320	89.91000
9.18800	0.00000	0.00000
9.19000	1.35300	89.91000
9.19200	1.53340	90.00000
9.19400	1.44320	90.00000
9.19600	1.35300	90.00000
9.19800	0.00000	0.00000
9.20000	1.26280	90.09000
9.20200	1.35300	90.09000
9.20400	1.35300	90.09000
9.20600	1.26280	90.09000
9.20800	1.35300	90.09000
9.21000	0.00000	0.00000
9.21200	0.00000	0.00000
9.21400	1.35300	90.09000
9.21600	1.35300	90.00000
9.21800	1.35300	89.91000
9.22000	1.35300	89.91000
9.22200	1.35300	90.00000
9.22400	1.35300	90.00000
9.22600	0.00000	0.00000
9.22800	1.35300	90.09000
9.23000	1.35300	90.00000
9.23200	1.44320	90.09000
9.23400	1.44320	90.00000
9.23600	1.44320	90.18000
9.23800	1.44320	90.09000
9.24000	0.00000	0.00000
9.24200	1.35300	90.09000
9.24400	1.26280	90.18000
9.24600	1.26280	90.09000
9.24800	1.26280	90.00000
9.25000	1.26280	90.00000
9.25200	1.26280	90.00000
9.25400	0.00000	0.00000
9.25600	1.26280	90.09000
9.25800	1.26280	90.09000
9.26000	1.35300	90.00000
9.26200	1.26280	90.00000
9.26400	1.26280	90.00000
9.26600	1.17260	89.82000
9.26800	0.00000	0.00000
9.27000	1.17260	89.82000
9.27200	1.17260	89.82000
9.27400	1.17260	89.91000
9.27600	1.17260	90.00000
9.27800	1.08240	89.82000
9.28000	1.08240	89.91000
9.28200	0.00000	0.00000
9.28400	1.08240	90.00000
9.28600	0.99220	89.91000
9.28800	1.08240	89.82000
9.29000	1.08240	89.82000
9.29200	1.17260	89.73000
9.29400	1.17260	89.73000
9.29600	0.00000	0.00000
9.29800	1.26280	89.73000
9.30000	1.26280	89.82000
9.30200	1.17260	89.91000
9.30400	1.08240	89.82000
9.30600	1.08240	89.73000
9.30800	1.08240	89.73000
9.31000	0.00000	0.00000
9.31200	1.08240	89.73000
9.31400	1.17260	89.73000
9.31600	1.17260	89.73000
9.31800	1.17260	89.73000
9.32000	1.17260	89.73000
9.32200	1.17260	89.64000
9.32400	0.00000	0.00000
9.32600	1.08240	89.64000
9.32800	0.99220	89.64000
9.33000	0.99220	89.82000
9.33200	0.99220	89.82000
9.33400	0.99220	89.82000
9.33600	1.08240	89.82000
9.33800	0.00000	0.00000
9.34000	0.90200	89.73000
9.34200	0.90200	89.82000
9.34400	1.08240	89.82000
9.34600	1.08240	89.82000
9.34800	0.99220	89.73000
9.35000	0.81180	89.73000
9.35200	0.00000	0.00000
9.35400	0.99220	89.73000
9.35600	0.99220	89.73000
9.35800	0.90200	89.73000
9.36000	0.81180	89.82000
9.36200	0.90200	89.73000
9.36400	0.90200	89.91000
9.36600	0.00000	0.00000
9.36800	0.81180	89.82000
9.37000	0.90200	89.82000
9.37200	0.90200	89.91000
9.37400	0.90200	90.00000
9.37600	0.90200	90.00000
9.37800	0.90200	90.00000
9.38000	0.00000	0.00000
9.38200	0.99220	90.00000
9.38400	0.99220	90.00000
9.38600	0.90200	89.91000
9.38800	0.90200	89.91000
9.39000	0.81180	90.00000
9.39200	0.90200	89.91000
9.39400	0.00000	0.00000
9.39600	0.90200	89.91000
9.39800	0.90200	89.91000
9.40000	0.90200	89.91000
9.40200	0.90200	89.91000
9.40400	0.72160	89.91000
9.40600	0.72160	89.91000
9.40800	0.00000	0.00000
9.41000	0.63140	90.00000
9.41200	0.72160	90.09000
9.41400	0.81180	90.18000
9.41600	0.81180	90.18000
9.41800	0.90200	90.09000
9.42000	0.00000	0.00000
9.42200	0.00000	0.00000
9.42400	0.72160	90.09000
9.42600	0.72160	90.18000
9.42800	0.72160	90.09000
9.43000	0.63140	90.09000
9.43200	0.72160	90.09000
9.43400	0.72160	90.00000
9.43600	0.00000	0.00000
9.43800	0.72160	90.09000
9.44000	0.63140	90.00000
9.44200	0.63140	90.00000
9.44400	0.72160	89.91000
9.44600	0.72160	89.91000
9.44800	0.63140	90.00000
9.45000	0.00000	0.00000
9.45200	0.54120	89.91000
9.45400	0.54120	89.91000
9.45600	0.63140	89.82000
9.45800	0.63140	89.82000
9.46000	0.63140	89.91000
9.46200	0.63140	0.00000
9.46400	0.00000	0.00000
9.46600	0.54120	89.91000
9.46800	0.54120	89.91000
9.47000	0.63140	89.91000
9.47200	0.63140	89.91000
9.47400	0.54120	89.91000
9.47600	0.54120	90.09000
9.47800	0.00000	0.00000
9.48000	0.63140	89.82000
9.48200	0.54120	89.91000
9.48400	0.36080	90.00000
9.48600	0.36080	89.91000
9.48800	0.45100	89.91000
9.49000	0.45100	89.82000
9.49200	0.00000	0.00000
9.49400	0.54120	89.82000
9.49600	0.63140	89.91000
9.49800	0.54120	89.91000
9.50000	0.45100	90.00000
9.50200	0.54120	89.91000
9.50400	0.54120	89.82000
9.50600	0.00000	0.00000
9.50800	0.45100	89.82000
9.51000	0.45100	89.82000
9.51200	0.45100	89.82000
9.51400	0.45100	90.00000
9.51600	0.63140	90.00000
9.51800	0.63140	90.00000
9.52000	0.00000	0.00000
9.52200	0.54120	90.00000
9.52400	0.45100	90.00000
9.52600	0.45100	90.00000
9.52800	0.00000	90.09000
9.53000	0.45100	90.09000
9.53200	0.36080	90.09000
9.53400	0.00000	0.00000
9.53600	0.27060	90.00000
9.53800	0.27060	90.00000
9.54000	0.27060	90.00000
9.54200	0.45100	90.00000
9.54400	0.45100	90.00000
9.54600	0.45100	90.00000
9.54800	0.00000	0.00000
9.55000	0.45100	89.91000
9.55200	0.45100	90.00000
9.55400	0.45100	90.00000
9.55600	0.45100	90.00000
9.55800	0.45100	90.00000
9.56000	0.36080	90.00000
9.56200	0.00000	0.00000
9.56400	0.36080	90.09000
9.56600	0.27060	90.18000
9.56800	0.27060	90.18000
9.57000	0.36080	90.18000
9.57200	0.27060	90.00000
9.57400	0.45100	90.00000
9.57600	0.00000	0.00000
9.57800	0.45100	90.00000
9.58000	0.45100	89.91000
9.58200	0.45100	89.91000
9.58400	0.36080	90.00000
9.58600	0.36080	89.91000
9.58800	0.45100	89.91000
9.59000	0.00000	0.00000
9.59200	0.45100	89.82000
9.59400	0.36080	89.82000
9.59600	0.36080	89.82000
9.59800	0.45100	89.91000
9.60000	0.36080	89.91000
9.60200	0.45100	89.82000
9.60400	0.00000	0.00000
9.60600	0.54120	89.82000
9.60800	0.36080	89.73000
9.61000	0.36080	89.82000
9.61200	0.36080	90.00000
9.61400	0.36080	89.82000
9.61600	0.36080	89.82000
9.61800	0.00000	0.00000
9.62000	0.36080	89.82000
9.62200	0.36080	89.73000
9.62400	0.36080	89.73000
9.62600	0.00000	0.00000
9.62800	0.00000	0.00000
9.63000	0.36080	89.82000
9.63200	0.00000	0.00000
9.63400	0.45100	89.82000
9.63600	0.45100	89.64000
9.63800	0.36080	89.73000
9.64000	0.27060	89.73000
9.64200	0.27060	89.73000
9.64400	0.36080	89.82000
9.64600	0.00000	0.00000
9.64800	0.36080	89.82000
9.65000	0.36080	89.82000
9.65200	0.00000	0.00000
9.65400	0.36080	89.82000
9.65600	0.36080	89.82000
9.65800	0.00000	0.00000
9.66000	0.27060	89.91000
9.66200	0.18040	89.82000
9.66400	0.09020	89.82000
9.66600	0.09020	89.82000
9.66800	0.18040	89.91000
9.67000	0.18040	89.91000
9.67200	0.00000	0.00000
9.67400	0.27060	89.82000
9.67600	0.27060	89.91000
9.67800	0.27060	89.91000
9.68000	0.27060	89.91000
9.68200	0.27060	89.91000
9.68400	0.27060	89.82000
9.68600	0.00000	0.00000
9.68800	0.36080	89.82000
9.69000	0.36080	89.82000
9.69200	0.36080	89.73000
9.69400	0.27060	89.82000
9.69600	0.27060	89.91000
9.69800	0.27060	89.91000
9.70000	0.00000	0.00000
9.70200	0.27060	89.82000
9.70400	0.36080	89.91000
9.70600	0.45100	89.91000
9.70800	0.45100	90.00000
9.71000	0.45100	89.91000
9.71200	0.45100	90.00000
9.71400	0.00000	0.00000
9.71600	0.36080	90.00000
9.71800	0.36080	90.00000
9.72000	0.36080	90.00000
9.72200	0.36080	90.09000
9.72400	0.36080	90.00000
9.72600	0.27060	90.09000
9.72800	0.00000	0.00000
9.73000	0.27060	90.09000
9.73200	0.27060	90.00000
9.73400	0.36080	90.00000
9.73600	0.36080	90.00000
9.73800	0.36080	90.00000
9.74000	0.36080	90.18000
9.74200	0.00000	0.00000
9.74400	0.45100	90.09000
9.74600	0.54120	90.18000
9.74800	0.45100	90.18000
9.75000	0.45100	90.18000
9.75200	0.45100	90.18000
9.75400	0.36080	90.18000
9.75600	0.00000	0.00000
9.75800	0.45100	90.09000
9.76000	0.54120	90.00000
9.76200	0.45100	90.09000
9.76400	0.36080	90.09000
9.76600	0.45100	90.00000
9.76800	0.36080	90.00000
9.77000	0.00000	0.00000
9.77200	0.45100	90.09000
9.77400	0.54120	90.09000
9.77600	0.54120	90.09000
9.77800	0.54120	90.09000
9.78000	0.63140	90.00000
9.78200	0.54120	90.00000
9.78400	0.00000	0.00000
9.78600	0.54120	90.09000
9.78800	0.54120	90.00000
9.79000	0.54120	89.91000
9.79200	0.63140	89.91000
9.79400	0.63140	89.91000
9.79600	0.63140	89.91000
9.79800	0.00000	0.00000
9.80000	0.63140	89.91000
9.80200	0.72160	89.91000
9.80400	0.00000	0.00000
9.80600	0.72160	90.00000
9.80800	0.72160	90.00000
9.81000	0.90200	89.82000
9.81200	0.00000	0.00000
9.81400	0.90200	89.82000
9.81600	0.72160	89.73000
9.81800	0.72160	89.82000
9.82000	0.72160	89.91000
9.82200	0.72160	89.91000
9.82400	0.72160	89.91000
9.82600	0.81180	89.82000
9.82800	0.00000	0.00000
9.83000	0.72160	89.91000
9.83200	0.72160	89.91000
9.83400	0.72160	89.91000
9.83600	0.63140	89.91000
9.83800	0.72160	89.82000
9.84000	0.00000	0.00000
9.84200	0.72160	89.82000
9.84400	0.72160	89.91000
9.84600	0.72160	89.91000
9.84800	0.72160	89.91000
9.85000	0.72160	89.82000
9.85200	0.72160	89.91000
9.85400	0.00000	0.00000
9.85600	0.72160	90.00000
9.85800	0.72160	90.00000
9.86000	0.63140	89.91000
9.86200	0.54120	90.00000
9.86400	0.63140	90.09000
9.86600	0.63140	90.00000
9.86800	0.00000	0.00000
9.87000	0.63140	90.00000
9.87200	0.72160	90.00000
9.87400	0.81180	90.09000
9.87600	0.81180	90.09000
9.87800	0.90200	90.18000
9.88000	0.72160	90.09000
9.88200	0.00000	0.00000
9.88400	0.72160	90.18000
9.88600	0.72160	90.18000
9.88800	0.81180	90.09000
9.89000	0.81180	90.18000
9.89200	0.99220	90.09000
9.89400	0.99220	90.00000
9.89600	0.00000	0.00000
9.89800	0.99220	90.09000
9.90000	0.90200	90.00000
9.90200	0.81180	90.00000
9.90400	0.90200	90.09000
9.90600	0.00000	0.00000
9.90800	0.81180	90.00000
9.91000	0.00000	0.00000
9.91200	0.81180	90.00000
9.91400	0.81180	89.91000
9.91600	0.81180	89.91000
9.91800	0.81180	89.82000
9.92000	0.72160	90.00000
9.92200	0.90200	90.00000
9.92400	0.90200	89.91000
9.92600	0.00000	0.00000
9.92800	0.90200	89.82000
9.93000	0.90200	89.82000
9.93200	0.81180	89.82000
9.93400	0.81180	89.82000
9.93600	0.81180	89.73000
9.93800	0.00000	0.00000
9.94000	0.90200	89.73000
9.94200	0.90200	89.55000
9.94400	0.99220	89.55000
9.94600	0.99220	89.64000
9.94800	0.81180	89.73000
9.95000	0.99220	89.82000
9.95200	0.00000	0.00000
9.95400	1.08240	89.82000
9.95600	0.99220	89.73000
9.95800	0.99220	89.64000
9.96000	0.99220	89.73000
9.96200	1.08240	89.82000
9.96400	1.26280	89.82000
9.96600	0.00000	0.00000
9.96800	1.17260	89.91000
9.97000	1.08240	89.91000
9.97200	1.17260	89.91000
9.97400	1.08240	89.82000
9.97600	1.17260	89.73000
9.97800	1.17260	89.82000
9.98000	0.00000	0.00000
9.98200	1.17260	89.64000
9.98400	1.17260	89.64000
9.98600	1.17260	89.73000
9.98800	1.17260	89.73000
9.99000	1.08240	89.82000
9.99200	1.17260	89.82000
9.99400	0.00000	0.00000
9.99600	1.17260	89.82000
9.99800	1.17260	90.00000
10.00000	1.17260	89.91000
10.00200	1.17260	89.73000
10.00400	1.17260	89.73000
10.00600	1.08240	89.73000
10.00800	0.00000	0.00000
10.01000	1.08240	89.82000
10.01200	1.08240	89.82000
10.01400	1.17260	89.82000
10.01600	1.26280	89.82000
10.01800	1.35300	89.91000
10.02000	1.26280	89.91000
10.02200	1.17260	90.00000
10.02400	1.26280	90.00000
10.02600	0.00000	0.00000
10.02800	1.26280	90.00000
10.03000	1.26280	89.91000
10.03200	1.26280	89.91000
10.03400	1.35300	89.91000
10.03600	0.00000	0.00000
10.03800	1.26280	90.09000
10.04000	1.26280	90.09000
10.04200	1.26280	90.00000
10.04400	1.17260	90.00000
10.04600	1.08240	90.00000
10.04800	1.26280	90.00000
10.05000	0.00000	0.00000
10.05200	1.35300	90.00000
10.05400	1.35300	90.09000
10.05600	1.44320	90.09000
10.05800	1.44320	90.09000
10.06000	1.53340	90.09000
10.06200	1.44320	89.91000
10.06400	0.00000	0.00000
10.06600	1.35300	89.91000
10.06800	1.44320	90.00000
10.07000	1.35300	90.09000
10.07200	1.35300	90.09000
10.07400	1.35300	90.09000
10.07600	1.44320	90.00000
10.07800	0.00000	0.00000
10.08000	1.44320	89.91000
10.08200	1.44320	90.00000
10.08400	1.44320	90.00000
10.08600	1.53340	90.09000
10.08800	1.35300	90.18000
10.09000	1.35300	90.00000
10.09200	0.00000	0.00000
10.09400	1.35300	90.00000
10.09600	1.44320	90.00000
10.09800	1.44320	90.00000
10.10000	1.44320	90.00000
10.10200	1.44320	90.00000
10.10400	1.62360	90.00000
10.10600	0.00000	0.00000
10.10800	1.53340	90.00000
10.11000	1.53340	90.00000
10.11200	1.62360	89.91000
10.11400	1.53340	90.00000
10.11600	1.53340	89.91000
10.11800	1.53340	89.91000
10.12000	0.00000	0.00000
10.12200	1.53340	89.91000
10.12400	1.44320	90.00000
10.12600	1.53340	89.91000
10.12800	1.53340	90.00000
10.13000	1.44320	90.00000
10.13200	1.44320	90.00000
10.13400	0.00000	0.00000
10.13600	1.62360	90.00000
10.13800	1.53340	89.91000
10.14000	1.44320	89.91000
10.14200	1.44320	89.91000
10.14400	1.62360	89.91000
10.14600	1.71380	89.91000
10.14800	0.00000	0.00000
10.15000	1.62360	89.91000
10.15200	1.53340	90.00000
10.15400	1.62360	90.00000
10.15600	1.71380	89.91000
10.15800	1.80400	89.91000
10.16000	1.62360	89.82000
10.16200	0.00000	0.00000
10.16400	1.62360	89.82000
10.16600	1.71380	89.82000
10.16800	1.71380	89.91000
10.17000	1.62360	90.00000
10.17200	1.53340	90.00000
10.17400	1.53340	89.82000
10.17600	0.00000	0.00000
10.17800	1.62360	89.82000
10.18000	1.62360	90.00000
10.18200	1.62360	90.00000
10.18400	1.62360	90.00000
10.18600	1.62360	89.91000
10.18800	1.62360	89.91000
10.19000	0.00000	0.00000
10.19200	1.62360	90.00000
10.19400	1.53340	89.91000
10.19600	1.53340	89.91000
10.19800	1.62360	89.82000
10.20000	1.62360	89.73000
10.20200	1.53340	89.91000
10.20400	0.00000	0.00000
10.20600	1.53340	90.00000
10.20800	1.53340	90.09000
10.21000	1.62360	90.09000
10.21200	1.71380	90.09000
10.21400	1.80400	90.09000
10.21600	1.62360	90.00000
10.21800	0.00000	0.00000
10.22000	1.62360	90.00000
10.22200	1.62360	90.00000
10.22400	1.71380	89.91000
10.22600	1.71380	89.91000
10.22800	1.71380	90.00000
10.23000	1.71380	90.00000
10.23200	0.00000	0.00000
10.23400	1.71380	89.91000
10.23600	1.62360	90.00000
10.23800	1.71380	90.00000
10.24000	1.71380	90.00000
10.24200	1.62360	90.00000
10.24400	1.71380	90.00000
10.24600	0.00000	0.00000
10.24800	1.71380	89.91000
10.25000	1.71380	89.91000
10.25200	1.71380	90.09000
10.25400	1.71380	90.09000
10.25600	1.62360	90.00000
10.25800	1.62360	89.91000
10.26000	0.00000	0.00000
10.26200	1.62360	89.82000
10.26400	1.71380	89.91000
10.26600	1.71380	89.91000
10.26800	1.71380	89.91000
10.27000	1.62360	89.73000
10.27200	1.53340	89.82000
10.27400	0.00000	0.00000
10.27600	1.53340	89.82000
10.27800	1.62360	89.82000
10.28000	1.62360	89.82000
10.28200	1.71380	90.00000
10.28400	1.62360	89.91000
10.28600	1.71380	90.00000
10.28800	0.00000	0.00000
10.29000	1.71380	89.91000
10.29200	1.80400	89.82000
10.29400	1.71380	89.82000
10.29600	1.71380	89.82000
10.29800	1.62360	89.73000
10.30000	1.71380	89.64000
10.30200	0.00000	0.00000
10.30400	1.62360	89.73000
10.30600	1.62360	89.73000
10.30800	1.62360	89.73000
10.31000	1.62360	89.82000
10.31200	1.62360	89.73000
10.31400	1.62360	89.73000
10.31600	0.00000	0.00000
10.31800	1.62360	89.73000
10.32000	1.62360	89.73000
10.32200	1.62360	89.82000
10.32400	1.71380	89.82000
10.32600	1.62360	89.82000
10.32800	1.62360	89.73000
10.33000	0.00000	0.00000
10.33200	1.71380	89.82000
10.33400	1.71380	89.82000
10.33600	1.62360	89.91000
10.33800	1.53340	89.91000
10.34000	1.62360	90.09000
10.34200	1.53340	90.00000
10.34400	0.00000	0.00000
10.34600	1.62360	90.00000
10.34800	1.62360	89.82000
10.35000	1.62360	89.82000
10.35200	1.62360	89.91000
10.35400	1.71380	89.91000
10.35600	1.53340	89.91000
10.35800	0.00000	0.00000
10.36000	1.53340	89.91000
10.36200	1.53340	90.00000
10.36400	1.53340	90.00000
10.36600	1.53340	90.09000
10.36800	1.44320	90.00000
10.37000	1.44320	90.09000
10.37200	0.00000	0.00000
10.37400	1.44320	90.18000
10.37600	1.44320	90.18000
10.37800	1.44320	90.18000
10.38000	1.44320	90.18000
10.38200	1.53340	90.18000
10.38400	1.62360	90.09000
10.38600	0.00000	0.00000
10.38800	1.53340	90.09000
10.39000	1.53340	90.09000
10.39200	1.53340	90.00000
10.39400	1.35300	90.00000
10.39600	1.35300	89.91000
10.39800	1.44320	90.00000
10.40000	0.00000	0.00000
10.40200	1.44320	90.09000
10.40400	1.53340	90.09000
10.40600	1.53340	90.09000
10.40800	1.53340	90.18000
10.41000	1.53340	90.09000
10.41200	1.62360	90.00000
10.41400	0.00000	0.00000
10.41600	1.62360	90.00000
10.41800	1.62360	90.09000
10.42000	1.53340	90.00000
10.42200	1.44320	90.00000
10.42400	1.26280	89.91000
10.42600	1.35300	90.00000
10.42800	0.00000	0.00000
10.43000	1.26280	89.91000
10.43200	1.26280	90.00000
10.43400	1.26280	90.00000
10.43600	1.26280	89.82000
10.43800	1.26280	89.82000
10.44000	1.44320	89.91000
10.44200	0.00000	0.00000
10.44400	1.44320	90.00000
10.44600	1.44320	90.00000
10.44800	1.35300	90.00000
10.45000	1.44320	90.00000
10.45200	1.44320	90.00000
10.45400	1.35300	89.91000
10.45600	0.00000	0.00000
10.45800	1.26280	89.82000
10.46000	1.17260	89.82000
10.46200	1.26280	89.91000
10.46400	1.26280	89.82000
10.46600	1.35300	89.82000
10.46800	1.26280	89.82000
10.47000	0.00000	0.00000
10.47200	1.17260	89.91000
10.47400	1.17260	89.91000
10.47600	1.26280	89.91000
10.47800	1.26280	89.91000
10.48000	1.26280	89.91000
10.48200	1.17260	89.73000
10.48400	0.00000	0.00000
10.48600	1.26280	89.91000
10.48800	1.26280	89.91000
10.49000	1.17260	89.82000
10.49200	1.17260	89.91000
10.49400	1.26280	89.91000
10.49600	1.17260	89.82000
10.49800	0.00000	0.00000
10.50000	1.08240	89.82000
10.50200	1.08240	89.82000
10.50400	1.17260	89.91000
10.50600	1.08240	90.00000
10.50800	1.08240	90.00000
10.51000	1.26280	89.82000
10.51200	0.00000	0.00000
10.51400	1.26280	89.91000
10.51600	1.26280	90.00000
10.51800	1.26280	90.00000
10.52000	1.17260	90.00000
10.52200	1.08240	90.09000
10.52400	1.08240	90.09000
10.52600	1.08240	90.09000
10.52800	0.00000	0.00000
10.53000	0.99220	90.00000
10.53200	1.08240	90.09000
10.53400	1.17260	89.91000
10.53600	1.17260	89.82000
10.53800	1.17260	89.91000
10.54000	0.00000	0.00000
10.54200	1.26280	89.91000
10.54400	1.08240	89.82000
10.54600	0.99220	89.91000
10.54800	1.17260	90.00000
10.55000	1.08240	89.91000
10.55200	1.08240	90.00000
10.55400	0.00000	0.00000
10.55600	0.99220	90.00000
10.55800	1.08240	89.91000
10.56000	1.08240	89.91000
10.56200	0.99220	89.91000
10.56400	1.08240	89.91000
10.56600	1.08240	89.91000
10.56800	0.00000	0.00000
10.57000	0.99220	89.91000
10.57200	0.99220	89.91000
10.57400	0.99220	89.82000
10.57600	0.90200	89.73000
10.57800	0.90200	89.73000
10.58000	0.90200	89.91000
10.58200	0.00000	0.00000
10.58400	0.99220	89.82000
10.58600	1.08240	89.91000
10.58800	0.99220	89.91000
10.59000	0.99220	89.82000
10.59200	0.99220	89.82000
10.59400	0.99220	89.73000
10.59600	0.00000	0.00000
10.59800	0.90200	89.82000
10.60000	0.00000	0.00000
10.60200	0.81180	89.73000
10.60400	0.81180	89.82000
10.60600	0.81180	89.82000
10.60800	0.72160	89.82000
10.61000	0.00000	0.00000
10.61200	0.81180	89.82000
10.61400	0.81180	89.91000
10.61600	0.81180	89.91000
10.61800	0.90200	89.82000
10.62000	0.99220	89.82000
10.62200	0.72160	89.73000
10.62400	0.00000	0.00000
10.62600	0.81180	89.73000
10.62800	0.00000	0.00000
10.63000	0.81180	89.73000
10.63200	0.81180	89.73000
10.63400	0.90200	89.82000
10.63600	0.81180	89.91000
10.63800	0.00000	0.00000
10.64000	0.81180	89.73000
10.64200	0.81180	89.82000
10.64400	0.81180	89.73000
10.64600	0.90200	89.82000
10.64800	0.81180	89.82000
10.65000	0.81180	89.73000
10.65200	0.90200	89.91000
10.65400	0.90200	89.73000
10.65600	0.81180	89.82000
10.65800	0.63140	89.91000
10.66000	0.72160	89.82000
10.66200	0.72160	89.91000
10.66400	0.00000	0.00000
10.66600	0.63140	89.91000
10.66800	0.72160	89.82000
10.67000	0.72160	89.82000
10.67200	0.81180	89.91000
10.67400	0.63140	90.00000
10.67600	0.54120	90.00000
10.67800	0.00000	0.00000
10.68000	0.54120	90.09000
10.68200	0.63140	90.09000
10.68400	0.54120	90.18000
10.68600	0.63140	90.09000
10.68800	0.63140	90.00000
10.69000	0.54120	90.09000
10.69200	0.00000	0.00000
10.69400	0.72160	90.09000
10.69600	0.63140	90.09000
10.69800	0.54120	90.18000
10.70000	0.54120	90.18000
10.70200	0.63140	90.18000
10.70400	0.63140	90.18000
10.70600	0.00000	0.00000
10.70800	0.63140	90.18000
10.71000	0.63140	90.18000
10.71200	0.72160	90.09000
10.71400	0.63140	90.09000
10.71600	0.72160	90.09000
10.71800	0.63140	90.00000
10.72000	0.00000	0.00000
10.72200	0.72160	90.09000
10.72400	0.72160	90.18000
10.72600	0.00000	0.00000
10.72800	0.63140	90.09000
10.73000	0.63140	90.09000
10.73200	0.54120	90.09000
10.73400	0.00000	0.00000
10.73600	0.63140	90.00000
10.73800	0.72160	89.91000
10.74000	0.81180	89.91000
10.74200	0.72160	90.09000
10.74400	0.63140	89.91000
10.74600	0.63140	89.91000
10.74800	0.00000	0.00000
10.75000	0.63140	89.91000
10.75200	0.63140	89.82000
10.75400	0.54120	89.82000
10.75600	0.45100	89.82000
10.75800	0.54120	89.82000
10.76000	0.36080	89.73000
10.76200	0.00000	0.00000
10.76400	0.45100	89.82000
10.76600	0.45100	89.91000
10.76800	0.45100	89.91000
10.77000	0.45100	89.91000
10.77200	0.45100	89.91000
10.77400	0.45100	89.82000
10.77600	0.00000	0.00000
10.77800	0.54120	89.82000
10.78000	0.54120	89.82000
10.78200	0.54120	89.73000
10.78400	0.45100	89.82000
10.78600	0.54120	89.82000
10.78800	0.45100	89.82000
10.79000	0.00000	0.00000
10.79200	0.36080	89.73000
10.79400	0.36080	89.73000
10.79600	0.36080	89.82000
10.79800	0.36080	89.82000
10.80000	0.36080	89.82000
10.80200	0.45100	89.91000
10.80400	0.00000	0.00000
10.80600	0.45100	89.91000
10.80800	0.45100	89.82000
10.81000	0.54120	89.82000
10.81200	0.63140	89.82000
10.81400	0.54120	89.82000
10.81600	0.45100	89.82000
10.81800	0.00000	0.00000
10.82000	0.45100	89.73000
10.82200	0.45100	89.73000
10.82400	0.00000	0.00000
10.82600	0.00000	0.00000
10.82800	0.54120	89.73000
10.83000	0.45100	89.73000
10.83200	0.00000	0.00000
10.83400	0.45100	89.73000
10.83600	0.54120	89.82000
10.83800	0.54120	89.82000
10.84000	0.54120	89.82000
10.84200	0.54120	89.82000
10.84400	0.54120	90.00000
10.84600	0.00000	0.00000
10.84800	0.45100	90.09000
10.85000	0.45100	90.00000
10.85200	0.45100	90.00000
10.85400	0.54120	89.91000
10.85600	0.54120	89.91000
10.85800	0.45100	89.82000
10.86000	0.00000	0.00000
10.86200	0.36080	89.91000
10.86400	0.45100	90.09000
10.86600	0.45100	89.91000
10.86800	0.36080	90.00000
10.87000	0.36080	90.00000
10.87200	0.36080	90.09000
10.87400	0.00000	0.00000
10.87600	0.36080	90.09000
10.87800	0.36080	90.09000
10.88000	0.36080	90.00000
10.88200	0.36080	90.00000
10.88400	0.36080	90.00000
10.88600	0.45100	90.09000
10.88800	0.00000	0.00000
10.89000	0.36080	90.00000
10.89200	0.45100	90.00000
10.89400	0.45100	89.91000
10.89600	0.36080	89.82000
10.89800	0.45100	89.91000
10.90000	0.54120	89.91000
10.90200	0.00000	0.00000
10.90400	0.45100	90.00000
10.90600	0.45100	89.91000
10.90800	0.45100	89.82000
10.91000	0.45100	89.82000
10.91200	0.54120	89.82000
10.91400	0.00000	0.00000
10.91600	0.00000	0.00000
10.91800	0.54120	89.73000
10.92000	0.54120	89.73000
10.92200	0.54120	89.64000
10.92400	0.63140	89.64000
10.92600	0.63140	89.64000
10.92800	0.54120	89.73000
10.93000	0.00000	0.00000
10.93200	0.45100	89.82000
10.93400	0.54120	89.82000
10.93600	0.54120	89.82000
10.93800	0.54120	89.82000
10.94000	0.45100	89.73000
10.94200	0.54120	89.82000
10.94400	0.00000	0.00000
10.94600	0.63140	89.82000
10.94800	0.63140	89.73000
10.95000	0.72160	89.82000
10.95200	0.54120	89.64000
10.95400	0.54120	89.64000
10.95600	0.54120	89.82000
10.95800	0.00000	0.00000
10.96000	0.45100	89.82000
10.96200	0.45100	89.82000
10.96400	0.45100	89.82000
10.96600	0.54120	89.91000
10.96800	0.54120	89.91000
10.97000	0.63140	89.82000
10.97200	0.00000	0.00000
10.97400	0.00000	0.00000
10.97600	0.00000	0.00000
10.97800	0.72160	89.82000
10.98000	0.72160	89.82000
10.98200	0.63140	89.73000
10.98400	0.63140	89.73000
10.98600	0.00000	0.00000
10.98800	0.72160	89.82000
10.99000	0.72160	89.82000
10.99200	0.63140	89.91000
10.99400	0.63140	89.82000
10.99600	0.72160	89.82000
10.99800	0.72160	89.82000
11.00000	0.00000	0.00000
11.00200	0.63140	90.00000
11.00400	0.54120	89.91000
11.00600	0.54120	89.91000
11.00800	0.63140	89.91000
11.01000	0.72160	90.09000
11.01200	0.81180	90.00000
11.01400	0.00000	0.00000
11.01600	0.72160	90.00000
11.01800	0.63140	90.00000
11.02000	0.54120	90.00000
11.02200	0.63140	90.00000
11.02400	0.63140	90.00000
11.02600	0.63140	90.00000
11.02800	0.63140	90.00000
11.03000	0.72160	90.09000
11.03200	0.81180	90.09000
11.03400	0.00000	0.00000
11.03600	0.81180	90.09000
11.03800	0.81180	90.09000
11.04000	0.72160	90.09000
11.04200	0.81180	90.00000
11.04400	0.72160	90.09000
11.04600	0.63140	90.09000
11.04800	0.00000	0.00000
11.05000	0.72160	90.09000
11.05200	0.90200	90.09000
11.05400	0.81180	90.00000
11.05600	0.81180	90.09000
11.05800	0.81180	90.09000
11.06000	0.90200	90.00000
11.06200	0.00000	0.00000
11.06400	0.90200	89.91000
11.06600	0.81180	90.00000
11.06800	0.90200	90.00000
11.07000	0.90200	90.00000
11.07200	0.90200	90.00000
11.07400	0.81180	90.09000
11.07600	0.00000	0.00000
11.07800	0.90200	90.09000
11.08000	0.81180	90.00000
11.08200	0.81180	90.00000
11.08400	0.81180	89.91000
11.08600	0.90200	89.91000
11.08800	0.90200	89.91000
11.09000	0.00000	0.00000
11.09200	0.90200	89.91000
11.09400	0.99220	89.91000
11.09600	1.08240	89.82000
11.09800	0.99220	89.82000
11.10000	0.81180	89.73000
11.10200	0.81180	89.73000
11.10400	0.00000	0.00000
11.10600	0.72160	89.82000
11.10800	0.72160	89.73000
11.11000	0.81180	89.73000
11.11200	0.72160	89.73000
11.11400	0.81180	89.82000
11.11600	0.99220	89.82000
11.11800	0.81180	89.82000
11.12000	0.00000	0.00000
11.12200	0.00000	0.00000
11.12400	0.90200	89.82000
11.12600	0.90200	89.73000
11.12800	0.90200	89.64000
11.13000	0.90200	89.64000
11.13200	0.00000	0.00000
11.13400	0.99220	89.73000
11.13600	0.90200	89.73000
11.13800	0.99220	89.73000
11.14000	0.99220	89.82000
11.14200	0.90200	89.82000
11.14400	0.90200	89.82000
11.14600	0.00000	0.00000
11.14800	0.99220	89.73000
11.15000	0.99220	89.73000
11.15200	0.99220	89.73000
11.15400	0.99220	89.73000
11.15600	1.08240	89.73000
11.15800	0.99220	89.82000
11.16000	0.00000	0.00000
11.16200	0.99220	89.91000
11.16400	0.90200	89.91000
11.16600	0.99220	89.91000
11.16800	0.99220	89.91000
11.17000	1.08240	89.91000
11.17200	1.08240	89.91000
11.17400	0.00000	0.00000
11.17600	1.08240	89.91000
11.17800	0.99220	89.91000
11.18000	1.08240	90.09000
11.18200	1.08240	90.09000
11.18400	1.08240	90.00000
11.18600	1.17260	90.09000
11.18800	0.00000	0.00000
11.19000	1.17260	90.09000
11.19200	1.17260	90.09000
11.19400	1.08240	90.09000
11.19600	1.08240	90.09000
11.19800	1.17260	90.00000
11.20000	1.17260	89.82000
11.20200	0.00000	0.00000
11.20400	1.26280	89.91000
11.20600	1.26280	90.00000
11.20800	1.17260	90.00000
11.21000	1.17260	89.91000
11.21200	1.08240	89.91000
11.21400	1.08240	89.91000
11.21600	0.00000	0.00000
11.21800	1.17260	89.91000
11.22000	1.26280	89.91000
11.22200	1.26280	90.00000
11.22400	1.35300	89.91000
11.22600	1.26280	89.91000
11.22800	1.26280	89.91000
11.23000	0.00000	0.00000
11.23200	1.26280	90.00000
11.23400	1.26280	90.00000
11.23600	1.26280	90.00000
11.23800	1.17260	90.00000
11.24000	1.26280	89.91000
11.24200	1.26280	89.91000
11.24400	0.00000	0.00000
11.24600	1.26280	89.82000
11.24800	1.35300	89.82000
11.25000	1.26280	89.82000
11.25200	1.26280	89.82000
11.25400	1.17260	89.82000
11.25600	1.26280	89.91000
11.25800	0.00000	0.00000
11.26000	1.17260	89.91000
11.26200	1.26280	89.91000
11.26400	1.26280	89.91000
11.26600	1.26280	89.91000
11.26800	1.17260	89.82000
11.27000	1.17260	89.82000
11.27200	0.00000	0.00000
11.27400	1.17260	89.82000
11.27600	1.26280	89.82000
11.27800	1.35300	89.91000
11.28000	1.35300	89.82000
11.28200	1.35300	89.73000
11.28400	1.35300	89.73000
11.28600	0.00000	0.00000
11.28800	1.35300	89.82000
11.29000	1.44320	89.91000
11.29200	1.44320	90.00000
11.29400	1.44320	90.09000
11.29600	1.44320	90.00000
11.29800	1.35300	89.91000
11.30000	0.00000	0.00000
11.30200	1.35300	89.91000
11.30400	1.35300	89.91000
11.30600	1.35300	89.91000
11.30800	1.53340	89.91000
11.31000	1.53340	90.00000
11.31200	1.44320	0.00000
11.31400	0.00000	0.00000
11.31600	1.44320	89.91000
11.31800	1.35300	89.91000
11.32000	1.35300	89.82000
11.32200	1.35300	89.91000
11.32400	1.35300	90.00000
11.32600	1.35300	90.00000
11.32800	0.00000	0.00000
11.33000	1.44320	90.00000
11.33200	1.53340	90.00000
11.33400	1.44320	90.00000
11.33600	1.35300	90.00000
11.33800	1.35300	90.00000
11.34000	1.44320	90.00000
11.34200	0.00000	0.00000
11.34400	1.35300	90.00000
11.34600	1.35300	90.00000
11.34800	1.26280	90.00000
11.35000	1.35300	90.09000
11.35200	1.35300	90.00000
11.35400	1.53340	90.00000
11.35600	0.00000	0.00000
11.35800	1.53340	90.09000
11.36000	1.53340	90.18000
11.36200	1.35300	90.18000
11.36400	1.35300	90.27000
11.36600	1.44320	90.27000
11.36800	1.53340	90.09000
11.37000	0.00000	0.00000
11.37200	1.53340	90.18000
11.37400	1.44320	90.18000
11.37600	1.44320	90.18000
11.37800	1.35300	90.27000
11.38000	1.35300	90.18000
11.38200	1.35300	90.00000
11.38400	0.00000	0.00000
11.38600	1.35300	89.91000
11.38800	1.44320	89.91000
11.39000	1.44320	89.82000
11.39200	1.53340	90.00000
11.39400	1.44320	90.00000
11.39600	1.53340	90.00000
11.39800	0.00000	0.00000
11.40000	1.44320	89.91000
11.40200	1.44320	89.82000
11.40400	1.44320	89.82000
11.40600	1.44320	89.91000
11.40800	1.53340	90.00000
11.41000	1.53340	89.91000
11.41200	0.00000	0.00000
11.41400	1.53340	90.00000
11.41600	1.62360	89.91000
11.41800	1.62360	90.00000
11.42000	1.62360	89.91000
11.42200	1.62360	89.82000
11.42400	1.44320	89.73000
11.42600	0.00000	0.00000
11.42800	1.35300	89.73000
11.43000	1.44320	89.73000
11.43200	1.44320	89.64000
11.43400	1.44320	89.73000
11.43600	1.44320	89.91000
11.43800	1.44320	90.00000
11.44000	0.00000	0.00000
11.44200	1.44320	90.00000
11.44400	1.44320	89.82000
11.44600	0.00000	0.00000
11.44800	1.53340	89.82000
11.45000	1.62360	89.73000
11.45200	1.62360	89.82000
11.45400	0.00000	0.00000
11.45600	1.62360	89.73000
11.45800	1.44320	89.73000
11.46000	1.35300	89.64000
11.46200	1.35300	89.73000
11.46400	1.44320	89.64000
11.46600	1.53340	89.73000
11.46800	0.00000	0.00000
11.47000	1.53340	89.82000
11.47200	1.53340	89.91000
11.47400	1.53340	89.82000
11.47600	1.53340	89.82000
11.47800	1.62360	89.91000
11.48000	1.53340	89.91000
11.48200	0.00000	0.00000
11.48400	1.44320	89.91000
11.48600	1.44320	89.91000
11.48800	1.44320	89.82000
11.49000	1.44320	89.82000
11.49200	1.53340	89.82000
11.49400	1.62360	89.91000
11.49600	0.00000	0.00000
11.49800	1.62360	89.91000
11.50000	1.53340	89.91000
11.50200	1.53340	89.82000
11.50400	1.53340	89.91000
11.50600	1.53340	90.00000
11.50800	1.53340	90.09000
11.51000	0.00000	0.00000
11.51200	1.44320	90.00000
11.51400	1.35300	90.00000
11.51600	1.35300	90.00000
11.51800	1.35300	90.09000
11.52000	1.35300	90.09000
11.52200	1.26280	89.91000
11.52400	0.00000	0.00000
11.52600	1.44320	90.00000
11.52800	1.35300	90.00000
11.53000	1.35300	90.00000
11.53200	1.44320	90.00000
11.53400	1.53340	90.09000
11.53600	1.62360	90.00000
11.53800	0.00000	0.00000
11.54000	1.62360	89.91000
11.54200	1.62360	89.91000
11.54400	1.62360	89.82000
11.54600	1.62360	89.82000
11.54800	1.53340	89.82000
11.55000	1.35300	89.91000
11.55200	0.00000	0.00000
11.55400	1.44320	89.91000
11.55600	1.44320	89.91000
11.55800	1.44320	89.91000
11.56000	1.53340	89.91000
11.56200	1.44320	89.82000
11.56400	1.53340	89.91000
11.56600	0.00000	0.00000
11.56800	1.53340	89.91000
11.57000	1.44320	89.82000
11.57200	1.44320	89.82000
11.57400	1.35300	89.91000
11.57600	1.35300	89.82000
11.57800	1.35300	89.91000
11.58000	0.00000	0.00000
11.58200	1.35300	89.91000
11.58400	1.35300	89.82000
11.58600	1.35300	89.82000
11.58800	1.44320	89.73000
11.59000	1.44320	89.73000
11.59200	1.35300	89.91000
11.59400	0.00000	0.00000
11.59600	1.26280	89.91000
11.59800	1.26280	89.82000
11.60000	1.35300	89.82000
11.60200	1.35300	89.91000
11.60400	1.35300	89.91000
11.60600	1.35300	89.82000
11.60800	0.00000	0.00000
11.61000	1.26280	89.82000
11.61200	1.35300	89.82000
11.61400	0.00000	0.00000
11.61600	1.26280	89.91000
11.61800	1.26280	89.91000
11.62000	1.35300	89.82000
11.62200	0.00000	0.00000
11.62400	1.35300	89.73000
11.62600	1.26280	89.82000
11.62800	1.26280	89.91000
11.63000	0.00000	0.00000
11.63200	1.26280	89.91000
11.63400	1.26280	90.00000
11.63600	0.00000	0.00000
11.63800	1.17260	90.00000
11.64000	1.26280	89.91000
11.64200	1.26280	90.00000
11.64400	1.08240	90.00000
11.64600	1.08240	89.91000
11.64800	1.08240	90.00000
11.65000	1.08240	89.91000
11.65200	1.17260	89.91000
11.65400	1.17260	89.91000
11.65600	1.26280	89.91000
11.65800	1.17260	89.82000
11.66000	1.17260	89.91000
11.66200	0.00000	0.00000
11.66400	1.17260	89.91000
11.66600	1.17260	90.00000
11.66800	1.17260	90.00000
11.67000	1.26280	89.91000
11.67200	1.35300	89.91000
11.67400	1.35300	90.00000
11.67600	0.00000	0.00000
11.67800	1.26280	90.00000
11.68000	1.26280	89.91000
11.68200	1.17260	90.09000
11.68400	1.17260	90.09000
11.68600	1.08240	90.00000
11.68800	1.17260	90.09000
11.69000	0.00000	0.00000
11.69200	0.99220	90.00000
11.69400	1.08240	90.00000
11.69600	1.08240	90.09000
11.69800	1.08240	90.09000
11.70000	1.17260	90.09000
11.70200	1.08240	90.18000
11.70400	0.00000	0.00000
11.70600	1.08240	90.18000
11.70800	1.08240	90.09000
11.71000	1.17260	90.00000
11.71200	1.08240	90.09000
11.71400	1.08240	90.09000
11.71600	0.99220	90.09000
11.71800	0.00000	0.00000
11.72000	0.90200	90.00000
11.72200	1.08240	89.91000
11.72400	1.08240	89.91000
11.72600	1.17260	89.91000
11.72800	1.17260	90.00000
11.73000	1.17260	89.91000
11.73200	0.00000	0.00000
11.73400	1.17260	89.82000
11.73600	1.08240	89.91000
11.73800	1.08240	89.91000
11.74000	0.99220	89.91000
11.74200	0.99220	89.91000
11.74400	0.99220	90.00000
11.74600	0.00000	0.00000
11.74800	1.08240	90.00000
11.75000	1.08240	89.91000
11.75200	1.08240	89.91000
11.75400	0.99220	89.82000
11.75600	1.08240	89.91000
11.75800	0.99220	89.82000
11.76000	0.00000	0.00000
11.76200	0.99220	89.73000
11.76400	0.99220	89.82000
11.76600	0.90200	89.82000
11.76800	0.90200	89.82000
11.77000	0.99220	89.73000
11.77200	0.99220	89.55000
11.77400	0.00000	0.00000
11.77600	0.99220	89.64000
11.77800	0.99220	89.73000
11.78000	0.90200	89.82000
11.78200	0.99220	89.73000
11.78400	0.99220	89.82000
11.78600	1.08240	89.82000
11.78800	0.00000	0.00000
11.79000	1.17260	89.73000
11.79200	1.08240	89.82000
11.79400	1.08240	89.91000
11.79600	0.99220	89.82000
11.79800	0.90200	89.82000
11.80000	0.81180	89.82000
11.80200	0.00000	0.00000
11.80400	0.81180	89.73000
11.80600	0.90200	89.73000
11.80800	0.90200	89.82000
11.81000	0.90200	89.82000
11.81200	0.99220	89.82000
11.81400	0.99220	89.91000
11.81600	0.00000	0.00000
11.81800	0.81180	89.91000
11.82000	0.90200	90.00000
11.82200	0.90200	89.91000
11.82400	0.90200	90.00000
11.82600	0.90200	90.00000
11.82800	0.81180	90.09000
11.83000	0.00000	0.00000
11.83200	0.72160	90.00000
11.83400	0.81180	90.00000
11.83600	0.90200	90.09000
11.83800	0.90200	90.09000
11.84000	0.90200	90.00000
11.84200	0.99220	89.91000
11.84400	0.00000	0.00000
11.84600	0.90200	89.91000
11.84800	0.90200	90.00000
11.85000	0.81180	90.00000
11.85200	0.90200	89.91000
11.85400	0.90200	89.82000
11.85600	0.72160	90.00000
11.85800	0.00000	0.00000
11.86000	0.81180	90.09000
11.86200	0.90200	90.09000
11.86400	0.90200	90.09000
11.86600	0.99220	90.00000
11.86800	0.90200	90.09000
11.87000	0.81180	90.00000
11.87200	0.00000	0.00000
11.87400	0.72160	90.00000
11.87600	0.72160	90.00000
11.87800	0.72160	90.00000
11.88000	0.81180	90.00000
11.88200	0.72160	90.09000
11.88400	0.72160	90.00000
11.88600	0.00000	0.00000
11.88800	0.81180	90.00000
11.89000	0.72160	90.09000
11.89200	0.81180	90.09000
11.89400	0.72160	89.91000
11.89600	0.72160	90.00000
11.89800	0.63140	90.00000
11.90000	0.00000	0.00000
11.90200	0.63140	90.09000
11.90400	0.63140	90.00000
11.90600	0.63140	90.00000
11.90800	0.63140	90.00000
11.91000	0.72160	90.00000
11.91200	0.81180	90.00000
11.91400	0.00000	0.00000
11.91600	0.72160	90.00000
11.91800	0.72160	90.00000
11.92000	0.63140	90.09000
11.92200	0.63140	90.09000
11.92400	0.63140	90.18000
11.92600	0.63140	90.09000
11.92800	0.00000	0.00000
11.93000	0.54120	90.09000
11.93200	0.45100	90.00000
11.93400	0.72160	89.91000
11.93600	0.72160	89.91000
11.93800	0.72160	89.91000
11.94000	0.72160	89.82000
11.94200	0.00000	0.00000
11.94400	0.72160	89.91000
11.94600	0.72160	89.91000
11.94800	0.72160	89.91000
11.95000	0.72160	90.00000
11.95400	0.72160	89.82000
11.95600	0.72160	89.82000
11.95800	0.72160	89.82000
11.96000	0.63140	89.82000
11.96200	0.72160	89.91000
11.96400	0.63140	90.00000
11.96600	0.63140	89.91000
11.96800	0.72160	90.00000
11.97000	0.00000	0.00000
11.97200	0.63140	89.91000
11.97400	0.63140	89.91000
11.97600	0.63140	90.00000
11.97800	0.72160	89.91000
11.98000	0.72160	90.09000
11.98200	0.72160	90.09000
11.98400	0.00000	0.00000
11.98600	0.63140	90.00000
11.98800	0.54120	90.18000
11.99000	0.00000	0.00000
11.99200	0.63140	90.09000
11.99400	0.72160	90.00000
11.99600	0.72160	90.09000
11.99800	0.72160	90.00000
12.00000	0.00000	0.00000
12.00200	0.63140	90.00000
12.00400	0.54120	90.09000
12.00600	0.54120	90.00000
12.00800	0.45100	90.09000
12.01000	0.63140	90.00000
12.01200	0.00000	0.00000
12.01400	0.72160	90.00000
12.01600	0.63140	90.00000
12.01800	0.63140	90.09000
12.02000	0.72160	90.09000
12.02200	0.63140	90.09000
12.02400	0.63140	90.00000
12.02600	0.72160	90.09000
12.02800	0.00000	0.00000
12.03000	0.63140	90.09000
12.03200	0.00000	0.00000
12.03400	0.63140	90.09000
12.03600	0.72160	90.00000
12.03800	0.63140	89.91000
12.04000	0.63140	89.91000
12.04200	0.54120	89.91000
12.04400	0.63140	89.91000
12.04600	0.00000	0.00000
12.04800	0.63140	90.00000
12.05000	0.63140	90.00000
12.05200	0.63140	90.00000
12.05400	0.63140	90.09000
12.05600	0.54120	90.09000
12.05800	0.45100	89.82000
12.06000	0.00000	0.00000
12.06200	0.45100	89.91000
12.06400	0.54120	89.73000
12.06600	0.63140	89.91000
12.06800	0.63140	89.91000
12.07000	0.54120	90.09000
12.07200	0.54120	89.91000
12.07400	0.00000	0.00000
12.07600	0.54120	89.91000
12.07800	0.63140	90.00000
12.08000	0.63140	89.91000
12.08200	0.63140	89.91000
12.08400	0.63140	89.91000
12.08600	0.54120	89.91000
12.08800	0.00000	0.00000
12.09000	0.54120	89.91000
12.09200	0.45100	89.73000
12.09400	0.45100	89.73000
12.09600	0.54120	89.73000
12.09800	0.63140	89.73000
12.10000	0.63140	89.64000
12.10200	0.00000	0.00000
12.10400	0.63140	89.82000
12.10600	0.00000	0.00000
12.10800	0.63140	89.82000
12.11000	0.63140	89.82000
12.11200	0.72160	89.73000
12.11400	0.72160	89.73000
12.11600	0.00000	0.00000
12.11800	0.72160	89.82000
12.12000	0.81180	89.73000
12.12200	0.81180	89.73000
12.12400	0.81180	89.73000
12.12600	0.81180	89.73000
12.12800	0.90200	89.73000
12.13000	0.00000	0.00000
12.13200	0.81180	89.73000
12.13400	0.72160	89.64000
12.13600	0.63140	89.64000
12.13800	0.72160	89.73000
12.14000	0.72160	89.91000
12.14200	0.63140	90.00000
12.14400	0.00000	0.00000
12.14600	0.72160	89.91000
12.14800	0.72160	90.00000
12.15000	0.72160	90.00000
12.15200	0.72160	89.91000
12.15400	0.63140	90.00000
12.15600	0.72160	89.91000
12.15800	0.00000	0.00000
12.16000	0.72160	90.00000
12.16200	0.72160	89.91000
12.16400	0.72160	89.91000
12.16600	0.81180	90.00000
12.16800	0.81180	90.00000
12.17000	0.72160	90.09000
12.17200	0.00000	0.00000
12.17400	0.72160	90.00000
12.17600	0.72160	90.00000
12.17800	0.72160	90.00000
12.18000	0.72160	89.91000
12.18200	0.72160	89.91000
12.18400	0.81180	90.00000
12.18600	0.00000	0.00000
12.18800	0.72160	89.91000
12.19000	0.81180	90.00000
12.19200	0.90200	90.09000
12.19400	0.99220	90.09000
12.19600	0.90200	90.09000
12.19800	0.72160	90.18000
12.20000	0.00000	0.00000
12.20200	0.72160	90.09000
12.20400	0.72160	90.00000
12.20600	0.81180	90.09000
12.20800	0.81180	90.09000
12.21000	0.90200	90.18000
12.21200	0.90200	90.09000
12.21400	0.00000	0.00000
12.21600	0.81180	89.91000
12.21800	0.81180	90.00000
12.22000	0.72160	90.00000
12.22200	0.81180	90.09000
12.22400	0.81180	90.00000
12.22600	0.00000	0.00000
12.22800	0.99220	89.91000
12.23000	0.99220	89.91000
12.23200	0.90200	89.82000
12.23400	0.81180	89.91000
12.23600	0.90200	89.82000
12.23800	0.90200	89.82000
12.24000	0.99220	89.73000
12.24200	0.00000	0.00000
12.24400	0.99220	89.82000
12.24600	0.99220	89.82000
12.24800	0.90200	89.82000
12.25000	0.81180	89.73000
12.25200	0.81180	89.91000
12.25400	0.90200	89.91000
12.25600	0.00000	0.00000
12.25800	0.90200	89.91000
12.26000	0.90200	89.82000
12.26200	0.90200	89.82000
12.26400	0.90200	89.82000
12.26600	0.81180	89.82000
12.26800	0.90200	89.82000
12.27000	0.00000	0.00000
12.27200	0.99220	89.91000
12.27400	0.99220	89.91000
12.27600	0.81180	90.00000
12.27800	0.81180	90.09000
12.28000	0.81180	90.00000
12.28200	0.81180	89.91000
12.28400	0.00000	0.00000
12.28600	0.90200	89.82000
12.28800	0.90200	89.91000
12.29000	0.81180	89.82000
12.29200	0.72160	89.91000
12.29400	0.81180	89.91000
12.29600	0.90200	89.91000
12.29800	0.00000	0.00000
12.30000	0.99220	90.00000
12.30200	0.99220	90.00000
12.30400	0.99220	90.00000
12.30600	1.08240	90.00000
12.30800	0.99220	90.00000
12.31000	1.17260	90.00000
12.31200	1.08240	90.09000
12.31400	0.00000	0.00000
12.31600	0.99220	90.00000
12.31800	1.08240	90.00000
12.32000	1.08240	90.00000
12.32200	0.99220	90.00000
12.32400	1.08240	89.91000
12.32600	0.00000	0.00000
12.32800	0.99220	90.00000
12.33000	0.99220	90.09000
12.33200	0.00000	0.00000
12.33400	0.99220	89.91000
12.33600	1.08240	89.91000
12.33800	0.99220	89.91000
12.34000	0.00000	0.00000
12.34200	1.08240	90.09000
12.34400	0.99220	90.09000
12.34600	0.99220	89.91000
12.34800	1.08240	89.91000
12.35000	0.99220	89.91000
12.35200	0.90200	90.00000
12.35400	0.99220	89.91000
12.35600	0.00000	0.00000
12.35800	0.99220	90.00000
12.36000	0.99220	90.00000
12.36200	0.00000	0.00000
12.36400	0.99220	90.00000
12.36600	1.08240	89.91000
12.36800	0.00000	0.00000
12.37000	1.17260	90.00000
12.37200	1.08240	89.91000
12.37400	1.08240	89.91000
12.37600	1.17260	90.00000
12.37800	1.08240	90.09000
12.38000	1.08240	90.09000
12.38200	0.00000	0.00000
12.38400	1.08240	90.09000
12.38600	0.99220	90.09000
12.38800	1.08240	90.09000
12.39000	1.08240	90.00000
12.39200	1.17260	90.09000
12.39400	1.26280	89.91000
12.39600	0.00000	0.00000
12.39800	1.17260	90.00000
12.40000	1.26280	89.91000
12.40200	1.26280	89.82000
12.40400	1.17260	89.82000
12.40600	1.08240	89.82000
12.40800	1.17260	89.91000
12.41000	0.00000	0.00000
12.41200	1.17260	89.91000
12.41400	1.17260	89.82000
12.41600	1.17260	89.82000
12.41800	1.17260	89.73000
12.42000	1.26280	89.91000
12.42200	1.26280	89.82000
12.42400	0.00000	0.00000
12.42600	1.35300	89.91000
12.42800	1.35300	89.82000
12.43000	1.35300	89.82000
12.43200	1.35300	89.82000
12.43400	1.26280	90.00000
12.43600	1.26280	89.82000
12.43800	0.00000	0.00000
12.44000	1.17260	89.64000
12.44200	1.26280	89.73000
12.44400	1.35300	89.73000
12.44600	1.35300	89.64000
12.44800	1.26280	89.64000
12.45000	1.26280	89.91000
12.45200	0.00000	0.00000
12.45400	1.26280	89.91000
12.45600	1.17260	89.82000
12.45800	1.17260	89.91000
12.46000	1.17260	89.91000
12.46200	1.26280	89.91000
12.46400	1.35300	89.73000
12.46600	0.00000	0.00000
12.46800	1.26280	89.91000
12.47000	1.17260	89.91000
12.47200	1.17260	89.91000
12.47400	1.17260	90.00000
12.47600	1.26280	90.00000
12.47800	1.26280	89.91000
12.48000	0.00000	0.00000
12.48200	1.35300	89.82000
12.48400	1.44320	89.82000
12.48600	1.35300	89.91000
12.48800	1.26280	89.82000
12.49000	1.26280	89.91000
12.49200	1.44320	89.91000
12.49400	0.00000	0.00000
12.49600	1.35300	89.82000
12.49800	1.35300	89.91000
12.50000	1.35300	89.91000
12.50200	1.44320	89.91000
12.50400	1.53340	90.00000
12.50600	1.44320	89.91000
12.50800	0.00000	0.00000
12.51000	1.53340	89.91000
12.51200	1.53340	90.09000
12.51400	0.00000	0.00000
12.51600	1.44320	90.18000
12.51800	1.35300	90.18000
12.52000	1.35300	89.91000
12.52200	0.00000	0.00000
12.52400	1.44320	89.82000
12.52600	1.53340	90.00000
12.52800	1.53340	90.00000
12.53000	1.53340	90.00000
12.53200	1.53340	90.00000
12.53400	1.26280	90.09000
12.53600	0.00000	0.00000
12.53800	1.35300	90.09000
12.54000	1.35300	90.09000
12.54200	1.35300	90.09000
12.54400	1.35300	90.18000
12.54600	1.35300	90.18000
12.54800	1.26280	90.00000
12.55000	0.00000	0.00000
12.55200	1.17260	90.00000
12.55400	1.17260	90.00000
12.55600	1.08240	90.00000
12.55800	0.99220	90.00000
12.56000	1.17260	89.91000
12.56200	1.17260	89.91000
12.56400	0.00000	0.00000
12.56600	1.26280	89.82000
12.56800	1.26280	89.91000
12.57000	1.26280	90.00000
12.57200	1.35300	90.00000
12.57400	1.53340	90.00000
12.57600	1.71380	89.82000
12.57800	0.00000	0.00000
12.58000	1.62360	89.82000
12.58200	1.62360	89.82000
12.58400	1.53340	89.82000
12.58600	1.53340	89.82000
12.58800	1.44320	89.82000
12.59000	1.35300	89.82000
12.59200	0.00000	0.00000
12.59400	1.35300	89.82000
12.59600	1.35300	89.91000
12.59800	1.44320	89.82000
12.60000	1.35300	89.91000
12.60200	1.35300	90.00000
12.60400	1.44320	0.00000
12.60600	0.00000	0.00000
12.60800	1.53340	90.00000
12.61000	1.53340	90.00000
12.61200	1.44320	89.91000
12.61400	0.00000	0.00000
12.61600	1.44320	89.91000
12.61800	1.44320	89.82000
12.62000	0.00000	0.00000
12.62200	1.44320	89.82000
12.62400	1.35300	89.91000
12.62600	1.35300	89.91000
12.62800	1.35300	90.09000
12.63000	1.35300	90.09000
12.63200	1.44320	89.91000
12.63400	0.00000	0.00000
12.63600	1.53340	89.91000
12.63800	1.44320	89.91000
12.64000	1.35300	89.91000
12.64200	1.44320	89.82000
12.64400	1.53340	89.91000
12.64600	1.53340	89.91000
12.64800	1.53340	89.82000
12.65000	1.35300	89.82000
12.65200	1.35300	89.82000
12.65400	1.53340	90.00000
12.65600	1.62360	89.91000
12.65800	1.44320	90.00000
12.66000	0.00000	0.00000
12.66200	1.44320	90.00000
12.66400	1.53340	90.09000
12.66600	1.44320	90.09000
12.66800	1.35300	90.09000
12.67000	1.44320	90.00000
12.67200	1.44320	90.09000
12.67400	0.00000	0.00000
12.67600	1.44320	90.18000
12.67800	1.53340	90.18000
12.68000	1.53340	90.18000
12.68200	1.53340	90.00000
12.68400	1.44320	90.00000
12.68600	1.35300	90.00000
12.68800	0.00000	0.00000
12.69000	1.35300	89.91000
12.69200	1.44320	89.91000
12.69400	1.62360	90.00000
12.69600	1.62360	90.00000
12.69800	1.53340	90.00000
12.70000	1.44320	90.00000
12.70200	0.00000	0.00000
12.70400	1.53340	90.00000
12.70600	1.44320	90.00000
12.70800	1.35300	90.00000
12.71000	1.35300	90.00000
12.71200	1.44320	89.91000
12.71400	1.44320	90.00000
12.71600	0.00000	0.00000
12.71800	1.44320	89.91000
12.72000	1.35300	89.91000
12.72200	1.35300	89.91000
12.72400	1.44320	89.91000
12.72600	1.35300	90.00000
12.72800	1.35300	90.00000
12.73000	0.00000	0.00000
12.73200	1.35300	89.91000
12.73400	1.35300	89.91000
12.73600	1.35300	89.82000
12.73800	1.26280	89.82000
12.74000	1.26280	89.82000
12.74200	1.17260	89.82000
12.74400	0.00000	0.00000
12.74600	1.26280	89.91000
12.74800	1.26280	89.82000
12.75000	1.35300	90.00000
12.75200	1.35300	90.00000
12.75400	1.35300	89.82000
12.75600	1.26280	89.82000
12.75800	0.00000	0.00000
12.76000	1.35300	89.82000
12.76200	1.35300	89.91000
12.76400	1.44320	89.91000
12.76600	1.35300	89.91000
12.76800	1.44320	89.91000
12.77000	1.44320	89.82000
12.77200	0.00000	0.00000
12.77400	1.44320	89.91000
12.77600	1.35300	89.82000
12.77800	1.35300	89.91000
12.78000	1.44320	90.00000
12.78200	1.44320	90.00000
12.78400	1.44320	89.91000
12.78600	0.00000	0.00000
12.78800	1.35300	89.82000
12.79000	1.35300	89.91000
12.79200	1.35300	89.91000
12.79400	1.26280	89.91000
12.79600	1.17260	89.82000
12.79800	1.17260	89.82000
12.80000	0.00000	0.00000
12.80200	1.17260	89.91000
12.80400	1.08240	89.91000
12.80600	1.17260	90.09000
12.80800	1.08240	90.00000
12.81000	1.08240	90.09000
12.81200	1.08240	90.09000
12.81400	0.00000	0.00000
12.81600	1.08240	90.09000
12.81800	1.17260	90.00000
12.82000	0.00000	0.00000
12.82200	1.08240	90.00000
12.82400	1.08240	90.00000
12.82600	1.08240	90.00000
12.82800	0.00000	0.00000
12.83000	1.08240	90.00000
12.83200	1.08240	90.00000
12.83400	1.17260	90.00000
12.83600	1.17260	90.00000
12.83800	1.17260	90.09000
12.84000	1.17260	90.09000
12.84200	0.00000	0.00000
12.84400	1.08240	90.18000
12.84600	1.08240	90.09000
12.84800	0.99220	90.00000
12.85000	1.08240	90.00000
12.85200	0.99220	90.00000
12.85400	0.99220	90.00000
12.85600	0.00000	0.00000
12.85800	1.08240	90.09000
12.86000	1.17260	90.00000
12.86200	0.00000	0.00000
12.86400	1.17260	90.00000
12.86600	1.17260	90.00000
12.86800	1.17260	89.91000
12.87000	0.00000	0.00000
12.87200	1.17260	89.91000
12.87400	1.17260	89.91000
12.87600	1.17260	90.00000
12.87800	1.17260	90.00000
12.88000	1.08240	90.00000
12.88200	1.08240	90.00000
12.88400	0.00000	0.00000
12.88600	1.17260	90.18000
12.88800	1.17260	90.09000
12.89000	1.26280	90.00000
12.89200	1.17260	89.91000
12.89400	1.17260	89.91000
12.89600	1.08240	89.91000
12.89800	0.00000	0.00000
12.90000	0.99220	89.91000
12.90200	1.08240	90.00000
12.90400	0.99220	90.00000
12.90600	1.08240	89.91000
12.90800	1.08240	90.00000
12.91000	0.99220	90.00000
12.91200	0.00000	0.00000
12.91400	1.08240	89.91000
12.91600	1.08240	89.91000
12.91800	0.99220	89.91000
12.92000	0.99220	89.82000
12.92200	1.08240	89.82000
12.92400	1.08240	89.82000
12.92600	0.00000	0.00000
12.92800	0.99220	89.82000
12.93000	0.99220	89.91000
12.93200	0.99220	89.91000
12.93400	0.90200	89.91000
12.93600	0.90200	89.82000
12.93800	0.90200	89.82000
12.94000	0.00000	0.00000
12.94200	0.99220	89.91000
12.94400	0.99220	89.91000
12.94600	0.99220	89.82000
12.94800	1.08240	89.82000
12.95000	0.90200	89.82000
12.95200	0.90200	89.82000
12.95400	0.00000	0.00000
12.95600	0.99220	89.91000
12.95800	0.99220	89.91000
12.96000	0.99220	89.91000
12.96200	0.90200	89.82000
12.96400	0.90200	89.82000
12.96600	0.90200	90.00000
12.96800	0.00000	0.00000
12.97000	0.90200	90.00000
12.97200	0.90200	89.91000
12.97400	0.99220	89.91000
12.97600	0.99220	89.91000
12.97800	0.99220	90.00000
12.98000	0.99220	89.82000
12.98200	0.00000	0.00000
12.98400	0.99220	89.82000
12.98600	0.90200	89.91000
12.98800	0.90200	90.00000
12.99000	0.90200	90.00000
12.99200	0.99220	90.09000
12.99400	0.90200	90.00000
12.99600	0.00000	0.00000
12.99800	0.81180	90.00000
13.00000	0.81180	90.09000
13.00200	0.81180	90.00000
13.00400	0.81180	90.09000
13.00600	0.90200	90.09000
13.00800	0.72160	90.00000
13.01000	0.00000	0.00000
13.01200	0.72160	89.82000
13.01400	0.00000	0.00000
13.01600	0.72160	89.91000
13.01800	0.72160	89.91000
13.02000	0.72160	90.09000
13.02200	0.81180	90.09000
13.02400	0.90200	90.00000
13.02600	0.90200	90.00000
13.02800	0.81180	0.00000
13.03000	0.00000	0.00000
13.03200	0.90200	90.00000
13.03400	0.81180	90.00000
13.03600	0.81180	90.00000
13.03800	0.81180	89.91000
13.04000	0.81180	90.00000
13.04200	0.90200	89.91000
13.04400	0.00000	0.00000
13.04600	0.90200	89.91000
13.04800	0.81180	89.91000
13.05000	0.81180	89.91000
13.05200	0.81180	89.82000
13.05400	0.81180	89.82000
13.05600	0.72160	89.82000
13.05800	0.00000	0.00000
13.06000	0.72160	89.91000
13.06200	0.81180	89.91000
13.06400	0.72160	89.91000
13.06600	0.81180	89.91000
13.06800	0.90200	89.91000
13.07000	0.81180	89.73000
13.07200	0.00000	0.00000
13.07400	0.81180	89.91000
13.07600	0.81180	89.82000
13.07800	0.81180	89.91000
13.08000	0.81180	89.82000
13.08200	0.72160	89.82000
13.08400	0.72160	89.91000
13.08600	0.00000	0.00000
13.08800	0.72160	89.91000
13.09000	0.81180	89.82000
13.09200	0.81180	89.91000
13.09400	0.81180	89.91000
13.09600	0.72160	89.82000
13.09800	0.63140	89.91000
13.10000	0.00000	0.00000
13.10200	0.63140	89.82000
13.10400	0.72160	89.64000
13.10600	0.63140	89.82000
13.10800	0.63140	89.82000
13.11000	0.63140	89.73000
13.11200	0.81180	89.91000
13.11400	0.00000	0.00000
13.11600	0.90200	89.91000
13.11800	0.00000	0.00000
13.12000	0.81180	89.91000
13.12200	0.72160	89.91000
13.12400	0.72160	89.82000
13.12600	0.63140	89.82000
13.12800	0.00000	0.00000
13.13000	0.72160	89.91000
13.13200	0.63140	90.00000
13.13400	0.63140	90.09000
13.13600	0.63140	90.09000
13.13800	0.72160	90.18000
13.14000	0.72160	90.00000
13.14200	0.00000	0.00000
13.14400	0.63140	90.00000
13.14600	0.63140	90.00000
13.14800	0.63140	90.00000
13.15000	0.63140	90.09000
13.15200	0.63140	90.00000
13.15400	0.54120	90.00000
13.15600	0.00000	0.00000
13.15800	0.63140	90.00000
13.16000	0.63140	90.00000
13.16200	0.54120	90.09000
13.16400	0.63140	90.18000
13.16600	0.63140	90.18000
13.16800	0.81180	90.09000
13.17000	0.00000	0.00000
13.17200	0.81180	90.09000
13.17400	0.90200	90.00000
13.17600	0.81180	90.09000
13.17800	0.72160	90.09000
13.18000	0.72160	90.09000
13.18200	0.81180	90.09000
13.18400	0.00000	0.00000
13.18600	0.72160	90.00000
13.18800	0.81180	89.91000
13.19000	0.81180	90.00000
13.19200	0.72160	89.91000
13.19400	0.63140	89.82000
13.19600	0.63140	90.09000
13.19800	0.00000	0.00000
13.20000	0.72160	90.00000
13.20200	0.72160	90.00000
13.20400	0.72160	90.00000
13.20600	0.63140	90.00000
13.20800	0.72160	90.00000
13.21000	0.00000	0.00000
13.21200	0.00000	0.00000
13.21400	0.72160	89.91000
13.21600	0.72160	89.91000
13.21800	0.72160	89.91000
13.22000	0.81180	89.91000
13.22200	0.90200	89.91000
13.22400	0.81180	89.91000
13.22600	0.00000	0.00000
13.22800	0.81180	89.82000
13.23000	0.90200	89.82000
13.23200	0.81180	89.91000
13.23400	0.63140	89.91000
13.23600	0.72160	89.91000
13.23800	0.72160	89.82000
13.24000	0.00000	0.00000
13.24200	0.72160	89.73000
13.24400	0.72160	89.91000
13.24600	0.72160	89.91000
13.24800	0.72160	89.91000
13.25000	0.72160	89.91000
13.25200	0.81180	89.91000
13.25400	0.00000	0.00000
13.25600	0.81180	90.00000
13.25800	0.81180	90.09000
13.26000	0.81180	90.00000
13.26200	0.81180	90.00000
13.26400	0.72160	90.09000
13.26600	0.72160	89.91000
13.26800	0.00000	0.00000
13.27000	0.81180	89.91000
13.27200	0.72160	90.00000
13.27400	0.72160	90.09000
13.27600	0.72160	90.00000
13.27800	0.81180	90.00000
13.28000	0.63140	89.91000
13.28200	0.00000	0.00000
13.28400	0.63140	89.91000
13.28600	0.54120	90.00000
13.28800	0.63140	90.00000
13.29000	0.54120	90.00000
13.29200	0.72160	90.09000
13.29400	0.72160	90.09000
13.29600	0.00000	0.00000
13.29800	0.63140	90.09000
13.30000	0.72160	90.09000
13.30200	0.81180	90.00000
13.30400	0.72160	90.09000
13.30600	0.72160	90.09000
13.30800	0.72160	0.00000
13.31000	0.00000	0.00000
13.31200	0.81180	90.00000
13.31400	0.81180	90.00000
13.31600	0.90200	90.00000
13.31800	0.81180	89.91000
13.32000	0.72160	89.91000
13.32200	0.90200	89.91000
13.32400	0.00000	0.00000
13.32600	0.90200	89.82000
13.32800	0.90200	89.82000
13.33000	0.90200	89.82000
13.33200	0.90200	89.82000
13.33400	0.90200	89.91000
13.33600	0.81180	89.91000
13.33800	0.00000	0.00000
13.34000	0.81180	89.91000
13.34200	0.81180	90.00000
13.34400	0.81180	90.00000
13.34600	0.90200	90.00000
13.34800	0.90200	89.91000
13.35000	0.90200	89.91000
13.35200	0.00000	0.00000
13.35400	0.99220	89.91000
13.35600	0.99220	89.91000
13.35800	0.90200	89.82000
13.36000	0.90200	89.91000
13.36200	0.99220	89.91000
13.36400	0.81180	89.82000
13.36600	0.00000	0.00000
13.36800	0.72160	89.91000
13.37000	0.90200	90.00000
13.37200	0.90200	90.00000
13.37400	0.90200	89.91000
13.37600	0.90200	89.91000
13.37800	0.99220	89.91000
13.38000	0.00000	0.00000
13.38200	0.99220	89.91000
13.38400	0.99220	89.91000
13.38600	0.90200	89.82000
13.38800	0.90200	89.82000
13.39000	0.99220	89.82000
13.39200	0.90200	89.91000
13.39400	0.00000	0.00000
13.39600	0.90200	89.91000
13.39800	0.81180	89.91000
13.40000	0.90200	89.82000
13.40200	0.90200	89.82000
13.40400	0.90200	89.82000
13.40600	0.90200	89.82000
13.40800	0.00000	0.00000
13.41000	0.90200	89.82000
13.41200	0.99220	89.82000
13.41400	0.99220	89.82000
13.41600	1.08240	89.82000
13.41800	1.08240	89.73000
13.42000	0.99220	89.73000
13.42200	0.00000	0.00000
13.42400	0.90200	89.73000
13.42600	0.00000	0.00000
13.42800	0.90200	89.64000
13.43000	0.81180	89.64000
13.43200	0.90200	89.73000
13.43400	0.99220	89.82000
13.43600	0.00000	0.00000
13.43800	0.90200	89.82000
13.44000	0.90200	89.82000
13.44200	0.90200	89.82000
13.44400	0.90200	89.82000
13.44600	0.99220	89.91000
13.44800	0.99220	90.09000
13.45000	0.00000	0.00000
13.45200	0.99220	90.09000
13.45400	0.99220	90.00000
13.45600	0.90200	90.00000
13.45800	0.99220	90.00000
13.46000	1.17260	90.00000
13.46200	1.17260	89.91000
13.46400	0.00000	0.00000
13.46600	1.08240	89.82000
13.46800	1.08240	89.91000
13.47000	1.08240	89.91000
13.47200	0.99220	90.00000
13.47400	0.90200	89.91000
13.47600	0.90200	90.00000
13.47800	0.00000	0.00000
13.48000	0.99220	90.00000
13.48200	0.99220	90.00000
13.48400	0.99220	89.91000
13.48600	0.99220	89.91000
13.48800	0.99220	89.91000
13.49000	0.99220	90.00000
13.49200	0.00000	0.00000
13.49400	0.99220	90.09000
13.49600	1.08240	90.09000
13.49800	1.08240	90.09000
13.50000	0.99220	90.09000
13.50200	0.90200	90.09000
13.50400	0.99220	89.91000
13.50600	0.00000	0.00000
13.50800	0.99220	90.00000
13.51000	0.99220	90.00000
13.51200	1.08240	90.09000
13.51400	0.99220	90.09000
13.51600	1.08240	90.00000
13.51800	1.08240	89.91000
13.52000	0.00000	0.00000
13.52200	1.08240	90.00000
13.52400	1.17260	90.00000
13.52600	1.17260	90.00000
13.52800	1.17260	90.00000
13.53000	1.17260	90.00000
13.53200	1.26280	89.91000
13.53400	0.00000	0.00000
13.53600	1.26280	89.82000
13.53800	1.26280	89.82000
13.54000	1.26280	89.91000
13.54200	1.26280	89.91000
13.54400	1.26280	90.00000
13.54600	1.17260	89.91000
13.54800	0.00000	0.00000
13.55000	0.99220	89.91000
13.55200	0.99220	89.91000
13.55400	1.08240	89.91000
13.55600	1.08240	89.82000
13.55800	1.08240	89.82000
13.56000	0.99220	90.00000
13.56200	0.00000	0.00000
13.56400	0.99220	89.91000
13.56600	1.17260	89.82000
13.56800	1.17260	90.00000
13.57000	1.17260	89.91000
13.57200	1.17260	90.00000
13.57400	1.17260	89.91000
13.57600	0.00000	0.00000
13.57800	1.17260	89.91000
13.58000	1.17260	89.91000
13.58200	1.26280	89.82000
13.58400	1.17260	89.82000
13.58600	1.26280	89.91000
13.58800	1.17260	89.82000
13.59000	0.00000	0.00000
13.59200	1.08240	89.91000
13.59400	1.08240	89.82000
13.59600	1.17260	89.82000
13.59800	1.26280	89.82000
13.60000	1.26280	89.73000
13.60200	1.08240	89.82000
13.60400	0.00000	0.00000
13.60600	1.17260	89.82000
13.60800	1.17260	89.91000
13.61000	1.17260	89.82000
13.61200	1.17260	89.82000
13.61400	1.26280	89.91000
13.61600	1.35300	90.00000
13.61800	0.00000	0.00000
13.62000	1.35300	90.09000
13.62200	1.26280	90.09000
