/***********************************************************
* Ocean Resources and Renewable Energy Laboratory
* Version: v1.0 (Released on May 1st, 2021)
* Programmed by: Jessica Nguyen (Email: nvnguyen@umass.edu)
*----------------------------------------------------------
* Project Name:	NREL_VGOSWEC_inertia_springs

* Project Lead:	JD
* Labview Operator:	PH
* Comments:	Dry swing test to determine moment of inertia of VGOSWEC with springs. Naming convention: PHI (signed initial pos in deg) VGM (variable geometry module angle in deg).
* Date and Time:	Tue 06 Jul 2021 11:45:54 AM EDT
***********************************************************/

"Time(s)"	"Roll(deg)"	"Pitch(deg)"	
0.00000	0.00000	0.00000
0.00200	1.44320	89.91000
0.00400	1.44320	89.91000
0.00600	1.44320	0.00000
0.00800	0.00000	0.00000
0.01000	1.44320	89.82000
0.01200	1.44320	89.82000
0.01400	0.00000	0.00000
0.01600	0.00000	0.00000
0.01800	1.17260	89.82000
0.02000	1.17260	89.82000
0.02200	1.26280	89.82000
0.02400	0.00000	0.00000
0.02600	1.44320	89.73000
0.02800	1.53340	89.82000
0.03000	0.00000	0.00000
0.03200	0.00000	0.00000
0.03400	1.35300	89.82000
0.03600	0.00000	0.00000
0.03800	0.00000	0.00000
0.04000	1.26280	89.73000
0.04200	1.26280	89.73000
0.04400	1.26280	0.00000
0.04600	0.00000	0.00000
0.04800	1.26280	89.82000
0.05000	1.17260	89.73000
0.05200	1.35300	89.73000
0.05400	0.00000	0.00000
0.05600	1.44320	89.73000
0.05800	1.35300	89.82000
0.06000	0.00000	0.00000
0.06200	0.00000	0.00000
0.06400	1.26280	89.73000
0.06600	1.26280	89.73000
0.06800	0.00000	0.00000
0.07000	1.26280	89.82000
0.07200	1.26280	89.82000
0.07400	1.35300	0.00000
0.07600	0.00000	0.00000
0.07800	1.26280	89.82000
0.08000	1.26280	89.82000
0.08200	1.26280	89.82000
0.08400	0.00000	0.00000
0.08600	1.26280	89.73000
0.08800	1.35300	89.64000
0.09000	0.00000	0.00000
0.09200	1.35300	89.73000
0.09400	1.35300	89.82000
0.09600	1.44320	89.82000
0.09800	0.00000	0.00000
0.10000	1.44320	89.73000
0.10200	1.35300	89.64000
0.10400	1.26280	89.64000
0.10600	0.00000	0.00000
0.10800	1.17260	89.64000
0.11000	1.26280	89.73000
0.11200	0.00000	0.00000
0.11400	1.35300	89.82000
0.11600	1.26280	89.73000
0.11800	1.35300	89.73000
0.12000	0.00000	0.00000
0.12200	1.44320	89.82000
0.12400	1.35300	89.73000
0.12600	1.35300	89.82000
0.12800	0.00000	0.00000
0.13000	1.26280	89.91000
0.13200	1.35300	89.82000
0.13400	1.44320	89.73000
0.13600	0.00000	0.00000
0.13800	1.35300	89.64000
0.14000	1.35300	89.64000
0.14200	0.00000	0.00000
0.14400	1.44320	89.73000
0.14600	1.44320	89.82000
0.14800	1.35300	89.82000
0.15000	1.26280	89.82000
0.15200	1.26280	89.82000
0.15400	1.26280	89.82000
0.15600	1.44320	89.91000
0.15800	0.00000	0.00000
0.16000	1.35300	89.82000
0.16200	1.26280	89.73000
0.16400	0.00000	0.00000
0.16600	1.26280	89.73000
0.16800	1.26280	89.73000
0.17000	1.26280	89.73000
0.17200	0.00000	0.00000
0.17400	1.35300	89.64000
0.17600	1.35300	89.64000
0.17800	1.35300	89.73000
0.18000	0.00000	0.00000
0.18200	1.53340	89.73000
0.18400	1.53340	89.73000
0.18600	0.00000	0.00000
0.18800	1.35300	89.82000
0.19000	1.44320	89.73000
0.19200	1.44320	89.64000
0.19400	0.00000	0.00000
0.19600	1.26280	89.73000
0.19800	1.35300	89.55000
0.20000	1.35300	89.64000
0.20200	0.00000	0.00000
0.20400	1.35300	89.73000
0.20600	1.35300	89.73000
0.20800	1.26280	89.64000
0.21000	0.00000	0.00000
0.21200	1.35300	89.82000
0.21400	1.35300	89.91000
0.21600	1.26280	89.82000
0.21800	0.00000	0.00000
0.22000	1.26280	89.82000
0.22200	1.26280	89.73000
0.22400	0.00000	0.00000
0.22600	1.26280	89.82000
0.22800	1.35300	89.82000
0.23000	1.26280	0.00000
0.23200	0.00000	0.00000
0.23400	1.44320	89.73000
0.23600	1.26280	89.82000
0.23800	1.26280	89.91000
0.24000	0.00000	0.00000
0.24200	1.17260	89.82000
0.24400	1.26280	89.82000
0.24600	0.00000	0.00000
0.24800	1.26280	89.82000
0.25000	1.35300	89.82000
0.25200	1.35300	89.82000
0.25400	0.00000	0.00000
0.25600	1.26280	89.91000
0.25800	1.26280	89.82000
0.26000	1.26280	89.91000
0.26200	0.00000	0.00000
0.26400	1.44320	89.82000
0.26600	1.44320	89.73000
0.26800	0.00000	0.00000
0.27000	1.35300	89.73000
0.27200	1.35300	89.82000
0.27400	1.35300	89.91000
0.27600	0.00000	0.00000
0.27800	1.26280	89.73000
0.28000	1.17260	89.73000
0.28200	1.26280	89.73000
0.28400	0.00000	0.00000
0.28600	1.35300	89.82000
0.28800	1.44320	89.82000
0.29000	0.00000	0.00000
0.29200	1.35300	89.82000
0.29400	1.26280	89.91000
0.29600	1.35300	89.82000
0.29800	0.00000	0.00000
0.30000	1.35300	89.64000
0.30200	1.35300	89.64000
0.30400	1.35300	89.73000
0.30600	0.00000	0.00000
0.30800	1.44320	89.64000
0.31000	1.53340	89.73000
0.31200	0.00000	0.00000
0.31400	1.35300	89.82000
0.31600	1.44320	89.64000
0.31800	1.53340	89.73000
0.32000	0.00000	0.00000
0.32200	1.35300	89.64000
0.32400	1.35300	89.73000
0.32600	1.35300	89.73000
0.32800	0.00000	0.00000
0.33000	1.26280	89.82000
0.33200	1.26280	89.82000
0.33400	0.00000	0.00000
0.33600	1.35300	89.73000
0.33800	1.35300	89.73000
0.34000	1.35300	89.73000
0.34200	0.00000	0.00000
0.34400	1.44320	89.73000
0.34600	1.35300	89.73000
0.34800	1.35300	89.73000
0.35000	0.00000	0.00000
0.35200	1.26280	89.73000
0.35400	1.26280	89.73000
0.35600	1.26280	89.64000
0.35800	0.00000	0.00000
0.36000	1.35300	89.64000
0.36200	1.44320	89.73000
0.36400	0.00000	0.00000
0.36600	1.35300	89.73000
0.36800	1.35300	89.64000
0.37000	1.44320	89.73000
0.37200	0.00000	0.00000
0.37400	1.44320	89.82000
0.37600	1.35300	89.91000
0.37800	1.26280	89.82000
0.38000	0.00000	0.00000
0.38200	1.35300	89.73000
0.38400	1.53340	89.73000
0.38600	0.00000	0.00000
0.38800	1.35300	89.82000
0.39000	1.26280	89.73000
0.39200	1.17260	89.82000
0.39400	0.00000	0.00000
0.39600	1.26280	89.73000
0.39800	1.26280	89.82000
0.40000	1.26280	89.73000
0.40200	0.00000	0.00000
0.40400	1.44320	89.73000
0.40600	1.53340	89.82000
0.40800	0.00000	0.00000
0.41000	1.62360	89.82000
0.41200	1.44320	89.73000
0.41400	1.35300	89.73000
0.41600	1.35300	89.73000
0.41800	0.00000	0.00000
0.42000	1.44320	89.55000
0.42200	1.44320	89.64000
0.42400	0.00000	0.00000
0.42600	1.26280	89.73000
0.42800	1.26280	89.73000
0.43000	1.17260	89.82000
0.43200	0.00000	0.00000
0.43400	1.26280	89.73000
0.43600	1.26280	89.73000
0.43800	0.00000	0.00000
0.44000	1.35300	89.82000
0.44200	1.35300	89.82000
0.44400	1.35300	89.73000
0.44600	0.00000	0.00000
0.44800	1.44320	89.64000
0.45000	1.35300	89.64000
0.45200	1.44320	89.64000
0.45400	0.00000	0.00000
0.45600	1.26280	89.55000
0.45800	1.35300	89.82000
0.46000	0.00000	0.00000
0.46200	1.26280	89.82000
0.46400	1.26280	89.73000
0.46600	1.35300	89.82000
0.46800	0.00000	0.00000
0.47000	1.35300	89.64000
0.47200	1.44320	89.73000
0.47400	1.44320	89.73000
0.47600	0.00000	0.00000
0.47800	1.35300	89.91000
0.48000	1.35300	89.73000
0.48200	0.00000	0.00000
0.48400	1.26280	89.55000
0.48600	1.35300	89.73000
0.48800	1.35300	89.64000
0.49000	0.00000	0.00000
0.49200	1.44320	89.64000
0.49400	1.35300	89.64000
0.49600	1.35300	89.73000
0.49800	0.00000	0.00000
0.50000	1.44320	89.82000
0.50200	1.44320	89.82000
0.50400	1.35300	89.91000
0.50600	0.00000	0.00000
0.50800	1.44320	89.82000
0.51000	1.53340	89.73000
0.51200	0.00000	0.00000
0.51400	1.35300	89.73000
0.51600	1.26280	89.73000
0.51800	1.26280	89.82000
0.52000	0.00000	0.00000
0.52200	1.44320	89.91000
0.52400	1.44320	89.82000
0.52600	1.35300	89.73000
0.52800	0.00000	0.00000
0.53000	1.26280	89.73000
0.53200	1.26280	89.73000
0.53400	0.00000	0.00000
0.53600	1.26280	89.73000
0.53800	1.35300	89.73000
0.54000	1.35300	89.73000
0.54200	0.00000	0.00000
0.54400	1.35300	89.73000
0.54600	1.35300	89.73000
0.54800	1.26280	89.73000
0.55000	0.00000	0.00000
0.55200	1.35300	89.73000
0.55400	1.26280	89.82000
0.55600	1.35300	89.73000
0.55800	0.00000	0.00000
0.56000	1.35300	89.73000
0.56200	1.35300	89.73000
0.56400	0.00000	0.00000
0.56600	1.53340	89.82000
0.56800	1.44320	89.73000
0.57000	1.26280	89.73000
0.57200	0.00000	0.00000
0.57400	1.35300	89.82000
0.57600	1.35300	89.73000
0.57800	1.44320	89.73000
0.58000	0.00000	0.00000
0.58200	1.44320	89.64000
0.58400	1.44320	89.64000
0.58600	0.00000	0.00000
0.58800	1.44320	89.82000
0.59000	1.35300	89.73000
0.59200	1.35300	89.82000
0.59400	0.00000	0.00000
0.59600	1.26280	89.91000
0.59800	1.35300	89.82000
0.60000	1.44320	89.82000
0.60200	0.00000	0.00000
0.60400	1.53340	89.73000
0.60600	1.53340	89.82000
0.60800	1.53340	89.82000
0.61000	0.00000	0.00000
0.61200	1.44320	89.82000
0.61400	1.35300	89.82000
0.61600	1.35300	89.73000
0.61800	0.00000	0.00000
0.62000	1.44320	89.82000
0.62200	1.35300	89.73000
0.62400	0.00000	0.00000
0.62600	1.35300	89.82000
0.62800	1.44320	89.82000
0.63000	1.44320	89.91000
0.63200	0.00000	0.00000
0.63400	1.44320	89.91000
0.63600	1.35300	89.91000
0.63800	1.35300	89.82000
0.64000	0.00000	0.00000
0.64200	1.26280	89.64000
0.64400	1.35300	89.73000
0.64600	0.00000	0.00000
0.64800	1.17260	89.73000
0.65000	1.17260	89.73000
0.65200	1.17260	89.73000
0.65400	0.00000	0.00000
0.65600	1.35300	89.64000
0.65800	1.35300	89.64000
0.66000	0.00000	0.00000
0.66200	1.26280	89.73000
0.66400	1.44320	90.00000
0.66600	1.44320	89.91000
0.66800	0.00000	0.00000
0.67000	1.35300	89.82000
0.67200	1.26280	89.73000
0.67400	1.26280	89.64000
0.67600	0.00000	0.00000
0.67800	1.17260	89.73000
0.68000	1.26280	89.73000
0.68200	0.00000	0.00000
0.68400	1.26280	89.73000
0.68600	1.35300	89.73000
0.68800	0.00000	0.00000
0.69000	1.44320	89.64000
0.69200	1.44320	89.64000
0.69400	1.35300	89.64000
0.69600	0.00000	0.00000
0.69800	1.35300	89.82000
0.70000	1.26280	89.82000
0.70200	1.17260	89.82000
0.70400	0.00000	0.00000
0.70600	1.26280	89.73000
0.70800	1.35300	89.82000
0.71000	0.00000	0.00000
0.71200	1.26280	89.82000
0.71400	1.17260	89.73000
0.71600	1.26280	89.64000
0.71800	0.00000	0.00000
0.72000	1.17260	89.73000
0.72200	1.26280	89.64000
0.72400	1.17260	89.73000
0.72600	0.00000	0.00000
0.72800	1.26280	89.82000
0.73000	1.26280	89.91000
0.73200	1.35300	89.82000
0.73400	0.00000	0.00000
0.73600	1.35300	89.64000
0.73800	1.35300	89.64000
0.74000	0.00000	0.00000
0.74200	1.35300	89.73000
0.74400	1.35300	89.73000
0.74600	1.35300	89.73000
0.74800	0.00000	0.00000
0.75000	1.44320	89.82000
0.75200	1.44320	89.73000
0.75400	1.44320	89.82000
0.75600	0.00000	0.00000
0.75800	1.44320	89.91000
0.76000	1.35300	89.91000
0.76200	0.00000	0.00000
0.76400	1.35300	89.91000
0.76600	1.44320	89.73000
0.76800	1.35300	89.73000
0.77000	0.00000	0.00000
0.77200	1.35300	89.82000
0.77400	1.35300	89.82000
0.77600	1.44320	89.82000
0.77800	0.00000	0.00000
0.78000	1.35300	89.82000
0.78200	1.44320	89.82000
0.78400	0.00000	0.00000
0.78600	1.35300	89.64000
0.78800	1.26280	89.73000
0.79000	1.44320	89.73000
0.79200	0.00000	0.00000
0.79400	1.35300	89.82000
0.79600	1.44320	89.73000
0.79800	1.44320	89.64000
0.80000	0.00000	0.00000
0.80200	1.35300	89.91000
0.80400	1.35300	89.91000
0.80600	1.44320	89.91000
0.80800	0.00000	0.00000
0.81000	1.44320	89.73000
0.81200	1.26280	89.73000
0.81400	0.00000	0.00000
0.81600	1.26280	89.64000
0.81800	1.44320	89.73000
0.82000	1.44320	89.82000
0.82200	0.00000	0.00000
0.82400	1.44320	89.73000
0.82600	1.35300	89.73000
0.82800	1.35300	89.73000
0.83000	0.00000	0.00000
0.83200	1.26280	89.73000
0.83400	1.26280	89.82000
0.83600	0.00000	0.00000
0.83800	1.08240	89.73000
0.84000	1.08240	89.64000
0.84200	1.26280	89.64000
0.84400	0.00000	0.00000
0.84600	1.35300	89.64000
0.84800	1.35300	89.73000
0.85000	1.26280	89.73000
0.85200	0.00000	0.00000
0.85400	1.26280	89.73000
0.85600	1.26280	89.82000
0.85800	1.35300	89.91000
0.86000	0.00000	0.00000
0.86200	1.44320	89.91000
0.86400	1.26280	89.91000
0.86600	0.00000	0.00000
0.86800	1.35300	89.73000
0.87000	1.26280	89.64000
0.87200	1.35300	89.64000
0.87400	0.00000	0.00000
0.87600	1.35300	89.73000
0.87800	1.35300	89.82000
0.88000	1.35300	89.91000
0.88200	0.00000	0.00000
0.88400	1.26280	89.91000
0.88600	1.35300	90.00000
0.88800	1.26280	89.91000
0.89000	0.00000	0.00000
0.89200	1.44320	89.91000
0.89400	1.53340	89.82000
0.89600	0.00000	0.00000
0.89800	1.35300	89.82000
0.90000	1.26280	89.82000
0.90200	1.35300	89.91000
0.90400	0.00000	0.00000
0.90600	1.35300	89.82000
0.90800	1.35300	89.73000
0.91000	1.35300	89.73000
0.91200	0.00000	0.00000
0.91400	1.26280	89.82000
0.91600	1.35300	89.82000
0.91800	0.00000	0.00000
0.92000	1.26280	89.82000
0.92200	1.17260	89.82000
0.92400	1.35300	89.82000
0.92600	0.00000	0.00000
0.92800	1.35300	89.73000
0.93000	1.44320	89.73000
0.93200	1.44320	89.82000
0.93400	0.00000	0.00000
0.93600	1.35300	89.73000
0.93800	1.35300	89.73000
0.94000	1.35300	89.82000
0.94200	0.00000	0.00000
0.94400	1.35300	89.82000
0.94600	1.35300	89.73000
0.94800	0.00000	0.00000
0.95000	1.35300	89.73000
0.95200	1.35300	89.73000
0.95400	1.35300	89.73000
0.95600	0.00000	0.00000
0.95800	1.26280	89.82000
0.96000	1.26280	89.82000
0.96200	1.26280	89.82000
0.96400	0.00000	0.00000
0.96600	1.35300	90.00000
0.96800	1.44320	89.91000
0.97000	0.00000	0.00000
0.97200	1.26280	89.73000
0.97400	1.35300	89.82000
0.97600	1.35300	89.82000
0.97800	0.00000	0.00000
0.98000	1.44320	89.82000
0.98200	1.44320	89.91000
0.98400	1.35300	89.91000
0.98600	0.00000	0.00000
0.98800	1.35300	89.82000
0.99000	1.35300	89.73000
0.99200	0.00000	0.00000
0.99400	1.44320	89.82000
0.99600	1.44320	89.82000
0.99800	1.35300	89.73000
1.00000	0.00000	0.00000
1.00200	1.35300	89.82000
1.00400	1.35300	89.82000
1.00600	1.35300	89.82000
1.00800	0.00000	0.00000
1.01000	1.53340	89.82000
1.01200	1.53340	89.73000
1.01400	1.44320	89.73000
1.01600	0.00000	0.00000
1.01800	1.44320	89.82000
1.02000	1.44320	89.82000
1.02200	0.00000	0.00000
1.02400	1.44320	89.82000
1.02600	1.35300	89.82000
1.02800	1.44320	89.82000
1.03000	0.00000	0.00000
1.03200	1.44320	89.64000
1.03400	1.35300	89.73000
1.03600	1.35300	89.73000
1.03800	0.00000	0.00000
1.04000	1.44320	89.64000
1.04200	1.53340	89.64000
1.04400	0.00000	0.00000
1.04600	1.44320	89.73000
1.04800	1.35300	89.82000
1.05000	0.00000	0.00000
1.05200	0.00000	0.00000
1.05400	1.44320	89.73000
1.05600	1.44320	89.64000
1.05800	1.44320	89.73000
1.06000	0.00000	0.00000
1.06200	1.35300	89.64000
1.06400	1.35300	89.73000
1.06600	1.26280	89.73000
1.06800	0.00000	0.00000
1.07000	1.35300	89.73000
1.07200	1.35300	89.73000
1.07400	0.00000	0.00000
1.07600	1.35300	89.64000
1.07800	1.44320	89.64000
1.08000	0.00000	0.00000
1.08200	0.00000	0.00000
1.08400	1.44320	89.91000
1.08600	1.17260	89.91000
1.08800	1.17260	89.91000
1.09000	0.00000	0.00000
1.09200	1.26280	89.82000
1.09400	1.35300	89.82000
1.09600	0.00000	0.00000
1.09800	1.44320	89.82000
1.10000	1.44320	89.91000
1.10200	1.44320	89.82000
1.10400	0.00000	0.00000
1.10600	1.44320	89.82000
1.10800	1.35300	89.82000
1.11000	1.35300	89.82000
1.11200	0.00000	0.00000
1.11400	1.44320	89.82000
1.11600	0.00000	0.00000
1.11800	0.00000	0.00000
1.12000	1.44320	89.64000
1.12200	1.35300	89.64000
1.12400	1.35300	89.73000
1.12600	0.00000	0.00000
1.12800	1.44320	89.73000
1.13000	1.44320	89.64000
1.13200	1.44320	89.64000
1.13400	0.00000	0.00000
1.13600	1.35300	89.73000
1.13800	1.44320	89.82000
1.14000	1.44320	89.73000
1.14200	0.00000	0.00000
1.14400	1.44320	89.73000
1.14600	1.44320	89.91000
1.14800	0.00000	0.00000
1.15000	1.44320	89.73000
1.15200	1.44320	89.64000
1.15400	1.44320	89.64000
1.15600	0.00000	0.00000
1.15800	1.44320	89.64000
1.16000	1.35300	89.73000
1.16200	1.35300	89.73000
1.16400	0.00000	0.00000
1.16600	1.44320	89.73000
1.16800	1.44320	89.82000
1.17000	1.44320	89.82000
1.17200	0.00000	0.00000
1.17400	1.44320	89.73000
1.17600	1.44320	89.73000
1.17800	0.00000	0.00000
1.18000	1.35300	89.91000
1.18200	1.44320	90.00000
1.18400	1.44320	89.91000
1.18600	0.00000	0.00000
1.18800	1.44320	89.73000
1.19000	1.35300	89.73000
1.19200	1.35300	89.73000
1.19400	0.00000	0.00000
1.19600	1.35300	89.73000
1.19800	1.35300	89.73000
1.20000	0.00000	0.00000
1.20200	1.35300	89.73000
1.20400	1.26280	89.73000
1.20600	1.26280	89.82000
1.20800	0.00000	0.00000
1.21000	1.35300	89.73000
1.21200	1.35300	89.73000
1.21400	1.26280	89.64000
1.21600	0.00000	0.00000
1.21800	1.35300	89.73000
1.22000	1.44320	89.73000
1.22200	0.00000	0.00000
1.22400	1.35300	89.82000
1.22600	1.35300	89.82000
1.22800	0.00000	0.00000
1.23000	0.00000	0.00000
1.23200	1.35300	89.73000
1.23400	1.26280	89.73000
1.23600	1.26280	89.64000
1.23800	0.00000	0.00000
1.24000	1.26280	89.73000
1.24200	1.35300	89.82000
1.24400	1.35300	89.73000
1.24600	0.00000	0.00000
1.24800	1.35300	89.73000
1.25000	1.35300	0.00000
1.25200	0.00000	0.00000
1.25400	1.53340	89.64000
1.25600	1.44320	89.73000
1.25800	0.00000	0.00000
1.26000	0.00000	0.00000
1.26200	1.26280	89.73000
1.26400	1.26280	89.82000
1.26600	1.35300	89.73000
1.26800	0.00000	0.00000
1.27000	1.35300	89.73000
1.27200	1.35300	0.00000
1.27400	0.00000	0.00000
1.27600	1.26280	89.55000
1.27800	1.26280	89.55000
1.28000	1.26280	89.64000
1.28200	0.00000	0.00000
1.28400	1.35300	89.73000
1.28600	1.53340	89.73000
1.28800	1.53340	89.73000
1.29000	0.00000	0.00000
1.29200	1.35300	89.73000
1.29400	1.35300	89.82000
1.29600	0.00000	0.00000
1.29800	1.26280	89.82000
1.30000	1.26280	89.82000
1.30200	1.35300	89.73000
1.30400	0.00000	0.00000
1.30600	1.35300	89.64000
1.30800	1.17260	89.73000
1.31000	1.17260	89.73000
1.31200	0.00000	0.00000
1.31400	1.35300	89.82000
1.31600	1.35300	89.82000
1.31800	0.00000	0.00000
1.32000	1.26280	89.73000
1.32200	1.26280	89.73000
1.32400	1.44320	89.64000
1.32600	0.00000	0.00000
1.32800	1.44320	89.73000
1.33000	1.53340	89.82000
1.33200	1.35300	89.91000
1.33400	1.26280	89.91000
1.33600	1.26280	89.91000
1.33800	1.17260	89.82000
1.34000	0.00000	0.00000
1.34200	1.26280	89.82000
1.34400	1.26280	89.73000
1.34600	1.35300	89.82000
1.34800	0.00000	0.00000
1.35000	1.35300	89.73000
1.35200	1.35300	89.73000
1.35400	1.35300	89.82000
1.35600	0.00000	0.00000
1.35800	1.44320	89.73000
1.36000	1.44320	89.73000
1.36200	1.44320	89.64000
1.36400	0.00000	0.00000
1.36600	1.44320	89.64000
1.36800	1.44320	0.00000
1.37000	0.00000	0.00000
1.37200	1.44320	89.82000
1.37400	1.35300	89.73000
1.37600	1.35300	89.73000
1.37800	0.00000	0.00000
1.38000	1.35300	89.82000
1.38200	1.35300	89.82000
1.38400	1.44320	89.91000
1.38600	0.00000	0.00000
1.38800	1.44320	89.91000
1.39000	0.00000	0.00000
1.39200	0.00000	0.00000
1.39400	1.35300	89.91000
1.39600	1.35300	89.91000
1.39800	0.00000	0.00000
1.40000	0.00000	0.00000
1.40200	1.44320	89.73000
1.40400	1.35300	89.64000
1.40600	1.35300	89.73000
1.40800	0.00000	0.00000
1.41000	1.44320	89.73000
1.41200	1.44320	89.64000
1.41400	1.35300	89.64000
1.41600	0.00000	0.00000
1.41800	1.44320	89.64000
1.42000	0.00000	0.00000
1.42200	0.00000	0.00000
1.42400	1.35300	89.82000
1.42600	1.35300	89.82000
1.42800	0.00000	0.00000
1.43000	0.00000	0.00000
1.43200	1.35300	89.82000
1.43400	1.53340	89.73000
1.43600	1.53340	89.73000
1.43800	0.00000	0.00000
1.44000	1.53340	89.64000
1.44200	1.44320	89.64000
1.44400	0.00000	0.00000
1.44600	1.44320	89.64000
1.44800	1.53340	89.73000
1.45000	0.00000	0.00000
1.45200	0.00000	0.00000
1.45400	1.35300	89.82000
1.45600	1.35300	89.82000
1.45800	1.44320	89.82000
1.46000	0.00000	0.00000
1.46200	1.35300	89.82000
1.46400	1.35300	89.82000
1.46600	0.00000	0.00000
1.46800	1.35300	89.82000
1.47000	1.35300	89.82000
1.47200	1.26280	89.82000
1.47400	0.00000	0.00000
1.47600	1.26280	89.82000
1.47800	1.35300	89.82000
1.48000	1.35300	89.73000
1.48200	0.00000	0.00000
1.48400	1.35300	89.64000
1.48600	1.35300	89.73000
1.48800	1.44320	89.73000
1.49000	0.00000	0.00000
1.49200	1.26280	89.73000
1.49400	1.26280	89.73000
1.49600	0.00000	0.00000
1.49800	1.35300	89.73000
1.50000	1.35300	89.82000
1.50200	1.44320	89.73000
1.50400	0.00000	0.00000
1.50600	1.35300	89.82000
1.50800	1.35300	89.82000
1.51000	1.26280	89.91000
1.51200	0.00000	0.00000
1.51400	1.26280	89.82000
1.51600	1.17260	89.91000
1.51800	0.00000	0.00000
1.52000	1.26280	89.82000
1.52200	1.26280	89.73000
1.52400	1.17260	89.82000
1.52600	0.00000	0.00000
1.52800	1.35300	89.82000
1.53000	1.26280	89.73000
1.53200	1.26280	89.73000
1.53400	0.00000	0.00000
1.53600	1.53340	89.82000
1.53800	1.53340	89.91000
1.54000	0.00000	0.00000
1.54200	1.53340	90.00000
1.54400	1.44320	89.82000
1.54600	1.44320	89.82000
1.54800	0.00000	0.00000
1.55000	1.35300	89.82000
1.55200	1.35300	89.82000
1.55400	1.26280	89.82000
1.55600	0.00000	0.00000
1.55800	1.44320	89.91000
1.56000	1.44320	89.91000
1.56200	1.35300	89.82000
1.56400	0.00000	0.00000
1.56600	1.35300	89.82000
1.56800	1.26280	89.82000
1.57000	0.00000	0.00000
1.57200	1.35300	89.73000
1.57400	1.35300	89.73000
1.57600	1.35300	89.73000
1.57800	0.00000	0.00000
1.58000	1.35300	89.64000
1.58200	1.35300	89.64000
1.58400	1.44320	89.64000
1.58600	0.00000	0.00000
1.58800	1.53340	89.73000
1.59000	1.53340	89.82000
1.59200	0.00000	0.00000
1.59400	1.44320	89.73000
1.59600	1.44320	89.82000
1.59800	1.35300	89.82000
1.60000	0.00000	0.00000
1.60200	1.35300	89.73000
1.60400	1.35300	89.82000
1.60600	1.35300	89.91000
1.60800	0.00000	0.00000
1.61000	1.26280	89.91000
1.61200	1.35300	89.91000
1.61400	1.44320	89.82000
1.61600	0.00000	0.00000
1.61800	1.53340	89.82000
1.62000	1.44320	89.82000
1.62200	0.00000	0.00000
1.62400	1.53340	89.73000
1.62600	1.44320	89.82000
1.62800	1.35300	89.82000
1.63000	0.00000	0.00000
1.63200	1.44320	89.91000
1.63400	1.62360	89.82000
1.63600	1.53340	89.82000
1.63800	0.00000	0.00000
1.64000	1.44320	89.73000
1.64200	1.35300	89.64000
1.64400	1.35300	89.64000
1.64600	0.00000	0.00000
1.64800	1.26280	89.82000
1.65000	1.17260	89.82000
1.65200	0.00000	0.00000
1.65400	1.44320	89.82000
1.65600	1.35300	89.73000
1.65800	1.35300	89.73000
1.66000	0.00000	0.00000
1.66200	1.53340	90.00000
1.66400	1.62360	90.00000
1.66600	1.98440	90.18000
1.66800	0.00000	0.00000
1.67000	2.52560	90.00000
1.67200	2.61580	89.82000
1.67400	0.00000	0.00000
1.67600	2.43540	89.82000
1.67800	2.25500	90.00000
1.68000	0.00000	0.00000
1.68200	2.52560	90.27000
1.68400	2.88640	90.18000
1.68600	3.42760	90.18000
1.68800	0.00000	0.00000
1.69000	3.60800	89.91000
1.69200	3.51780	89.91000
1.69400	3.24720	90.09000
1.69600	0.00000	0.00000
1.69800	3.33740	90.45000
1.70000	3.60800	90.36000
1.70200	0.00000	0.00000
1.70400	3.87860	90.09000
1.70600	3.96880	90.09000
1.70800	3.69820	90.09000
1.71000	0.00000	0.00000
1.71200	3.78840	90.09000
1.71400	3.87860	90.09000
1.71600	3.96880	90.00000
1.71800	0.00000	0.00000
1.72000	4.14920	89.91000
1.72200	4.05900	89.82000
1.72400	0.00000	0.00000
1.72600	3.96880	89.82000
1.72800	3.96880	89.91000
1.73000	4.14920	89.82000
1.73200	0.00000	0.00000
1.73400	4.23940	89.73000
1.73600	4.32960	89.82000
1.73800	4.41980	89.64000
1.74000	0.00000	0.00000
1.74200	4.51000	89.37000
1.74400	4.60020	89.46000
1.74600	4.87080	89.64000
1.74800	4.87080	89.64000
1.75000	5.05120	89.73000
1.75200	5.05120	89.64000
1.75400	0.00000	0.00000
1.75600	5.05120	89.46000
1.75800	5.14140	89.37000
1.76000	5.32180	89.37000
1.76200	0.00000	0.00000
1.76400	5.59240	89.46000
1.76600	5.59240	89.46000
1.76800	5.59240	89.46000
1.77000	0.00000	0.00000
1.77200	5.59240	89.46000
1.77400	5.77280	89.37000
1.77600	0.00000	0.00000
1.77800	5.86300	89.28000
1.78000	6.04340	89.28000
1.78200	5.95320	89.46000
1.78400	0.00000	0.00000
1.78600	6.04340	89.64000
1.78800	5.95320	89.46000
1.79000	5.86300	89.37000
1.79200	0.00000	0.00000
1.79400	6.04340	89.37000
1.79600	5.95320	89.28000
1.79800	5.95320	89.37000
1.80000	0.00000	0.00000
1.80200	5.86300	89.55000
1.80400	5.77280	89.73000
1.80600	0.00000	0.00000
1.80800	5.86300	89.73000
1.81000	5.77280	89.73000
1.81200	5.68260	89.73000
1.81400	0.00000	0.00000
1.81600	5.68260	89.82000
1.81800	5.59240	90.00000
1.82000	5.50220	90.09000
1.82200	0.00000	0.00000
1.82400	5.41200	90.00000
1.82600	5.41200	90.00000
1.82800	5.32180	89.82000
1.83000	5.32180	90.00000
1.83200	5.23160	90.09000
1.83400	5.14140	90.27000
1.83600	0.00000	0.00000
1.83800	5.14140	90.36000
1.84000	5.14140	90.18000
1.84200	5.23160	90.18000
1.84400	0.00000	0.00000
1.84600	5.23160	90.09000
1.84800	5.23160	90.09000
1.85000	5.23160	90.27000
1.85200	0.00000	0.00000
1.85400	5.59240	90.45000
1.85600	5.59240	90.36000
1.85800	0.00000	0.00000
1.86000	5.59240	90.27000
1.86200	5.77280	90.27000
1.86400	5.68260	90.18000
1.86600	0.00000	0.00000
1.86800	5.68260	90.27000
1.87000	5.68260	90.27000
1.87200	5.77280	90.36000
1.87400	0.00000	0.00000
1.87600	5.86300	90.18000
1.87800	5.95320	90.18000
1.88000	5.95320	90.09000
1.88200	0.00000	0.00000
1.88400	6.04340	90.09000
1.88600	5.86300	90.18000
1.88800	5.86300	90.18000
1.89000	0.00000	0.00000
1.89200	5.86300	90.09000
1.89400	5.86300	90.00000
1.89600	0.00000	0.00000
1.89800	5.68260	89.91000
1.90000	5.59240	89.91000
1.90200	5.50220	89.91000
1.90400	0.00000	0.00000
1.90600	5.23160	90.00000
1.90800	5.23160	90.00000
1.91000	5.05120	90.00000
1.91200	0.00000	0.00000
1.91400	4.96100	89.82000
1.91600	4.96100	89.82000
1.91800	4.78060	89.82000
1.92000	0.00000	0.00000
1.92200	4.51000	89.82000
1.92400	4.51000	89.73000
1.92600	0.00000	0.00000
1.92800	4.60020	89.73000
1.93000	4.60020	89.55000
1.93200	4.60020	89.55000
1.93400	0.00000	0.00000
1.93600	4.60020	89.64000
1.93800	4.69040	89.73000
1.94000	4.69040	89.73000
1.94200	0.00000	0.00000
1.94400	4.78060	89.73000
1.94600	4.78060	89.64000
1.94800	4.69040	89.64000
1.95000	0.00000	0.00000
1.95200	4.69040	89.55000
1.95400	4.60020	89.55000
1.95600	0.00000	0.00000
1.95800	4.51000	89.73000
1.96000	4.41980	89.73000
1.96200	4.32960	89.64000
1.96400	0.00000	0.00000
1.96600	4.23940	89.46000
1.96800	4.23940	89.46000
1.97000	4.32960	89.37000
1.97200	0.00000	0.00000
1.97400	4.14920	89.55000
1.97600	4.05900	89.55000
1.97800	0.00000	0.00000
1.98000	3.96880	89.64000
1.98200	3.96880	89.64000
1.98400	3.96880	89.64000
1.98600	0.00000	0.00000
1.98800	3.87860	89.64000
1.99000	3.87860	89.64000
1.99200	3.87860	89.73000
1.99400	0.00000	0.00000
1.99600	3.96880	89.73000
1.99800	3.96880	89.64000
2.00000	3.87860	89.73000
2.00200	0.00000	0.00000
2.00400	3.87860	89.73000
2.00600	3.96880	89.82000
2.00800	0.00000	0.00000
2.01000	4.05900	89.82000
2.01200	4.05900	89.82000
2.01400	4.14920	89.73000
2.01600	0.00000	0.00000
2.01800	4.32960	89.64000
2.02000	4.32960	89.64000
2.02200	4.32960	89.73000
2.02400	0.00000	0.00000
2.02600	4.51000	89.82000
2.02800	4.60020	89.91000
2.03000	0.00000	0.00000
2.03200	4.51000	89.91000
2.03400	4.51000	90.00000
2.03600	4.51000	90.09000
2.03800	0.00000	0.00000
2.04000	4.60020	90.00000
2.04200	4.51000	89.91000
2.04400	4.41980	89.82000
2.04600	0.00000	0.00000
2.04800	4.32960	89.91000
2.05000	4.32960	90.00000
2.05200	0.00000	0.00000
2.05400	4.32960	90.00000
2.05600	4.41980	90.00000
2.05800	4.41980	89.91000
2.06000	0.00000	0.00000
2.06200	4.41980	89.91000
2.06400	4.51000	89.82000
2.06600	4.60020	89.91000
2.06800	0.00000	0.00000
2.07000	4.51000	89.73000
2.07200	4.60020	89.82000
2.07400	4.51000	89.82000
2.07600	4.60020	89.73000
2.07800	4.69040	89.82000
2.08000	4.60020	89.82000
2.08200	0.00000	0.00000
2.08400	4.78060	89.73000
2.08600	4.87080	89.64000
2.08800	4.87080	89.73000
2.09000	0.00000	0.00000
2.09200	4.87080	89.64000
2.09400	4.87080	89.64000
2.09600	4.96100	89.73000
2.09800	0.00000	0.00000
2.10000	4.96100	89.73000
2.10200	5.05120	89.64000
2.10400	0.00000	0.00000
2.10600	5.05120	89.37000
2.10800	5.05120	89.46000
2.11000	4.96100	89.46000
2.11200	0.00000	0.00000
2.11400	4.96100	89.46000
2.11600	4.96100	89.64000
2.11800	4.96100	89.64000
2.12000	0.00000	0.00000
2.12200	5.14140	89.55000
2.12400	5.32180	89.46000
2.12600	0.00000	0.00000
2.12800	5.41200	89.37000
2.13000	5.23160	89.46000
2.13200	0.00000	0.00000
2.13400	0.00000	0.00000
2.13600	5.32180	89.55000
2.13800	5.32180	89.64000
2.14000	0.00000	0.00000
2.14200	0.00000	0.00000
2.14400	5.59240	89.55000
2.14600	5.59240	89.55000
2.14800	5.50220	89.55000
2.15000	0.00000	0.00000
2.15200	5.68260	89.64000
2.15400	5.68260	89.64000
2.15600	5.68260	89.73000
2.15800	0.00000	0.00000
2.16000	5.59240	89.73000
2.16200	5.59240	89.73000
2.16400	0.00000	0.00000
2.16600	5.59240	89.64000
2.16800	5.50220	89.64000
2.17000	0.00000	0.00000
2.17200	0.00000	0.00000
2.17400	5.59240	89.64000
2.17600	5.68260	89.64000
2.17800	5.77280	89.55000
2.18000	0.00000	0.00000
2.18200	5.50220	89.73000
2.18400	5.41200	89.73000
2.18600	0.00000	0.00000
2.18800	5.50220	89.82000
2.19000	5.41200	89.82000
2.19200	0.00000	0.00000
2.19400	0.00000	0.00000
2.19600	5.68260	89.82000
2.19800	5.59240	89.91000
2.20000	5.59240	89.91000
2.20200	0.00000	0.00000
2.20400	5.77280	89.91000
2.20600	5.77280	90.00000
2.20800	5.77280	90.09000
2.21000	0.00000	0.00000
2.21200	5.68260	90.00000
2.21400	5.77280	89.91000
2.21600	0.00000	0.00000
2.21800	5.77280	90.09000
2.22000	5.77280	90.09000
2.22200	5.77280	90.18000
2.22400	0.00000	0.00000
2.22600	5.59240	90.18000
2.22800	5.50220	90.18000
2.23000	0.00000	0.00000
2.23200	5.41200	90.09000
2.23400	5.23160	90.09000
2.23600	5.23160	90.09000
2.23800	0.00000	90.00000
2.24000	5.14140	90.00000
2.24200	5.14140	89.91000
2.24400	5.14140	90.00000
2.24600	0.00000	0.00000
2.24800	5.14140	89.82000
2.25000	5.05120	89.82000
2.25200	4.96100	89.82000
2.25400	0.00000	0.00000
2.25600	4.78060	89.91000
2.25800	0.00000	0.00000
2.26000	0.00000	0.00000
2.26200	4.60020	89.73000
2.26400	4.69040	89.73000
2.26600	4.78060	89.73000
2.26800	0.00000	0.00000
2.27000	4.69040	89.73000
2.27200	4.78060	89.64000
2.27400	4.78060	89.64000
2.27600	0.00000	0.00000
2.27800	4.78060	89.46000
2.28000	4.87080	89.37000
2.28200	5.05120	89.37000
2.28400	5.14140	89.37000
2.28600	5.14140	89.37000
2.28800	5.32180	89.37000
2.29000	0.00000	0.00000
2.29200	5.32180	89.37000
2.29400	5.50220	89.37000
2.29600	0.00000	0.00000
2.29800	0.00000	0.00000
2.30000	5.68260	89.19000
2.30200	5.86300	89.10000
2.30400	0.00000	0.00000
2.30600	0.00000	0.00000
2.30800	5.77280	89.01000
2.31000	5.77280	88.92000
2.31200	5.77280	89.01000
2.31400	5.77280	89.01000
2.31600	5.77280	89.01000
2.31800	0.00000	0.00000
2.32000	0.00000	0.00000
2.32200	5.68260	88.92000
2.32400	5.59240	88.92000
2.32600	0.00000	0.00000
2.32800	0.00000	0.00000
2.33000	5.59240	89.01000
2.33200	5.59240	89.01000
2.33400	5.77280	89.10000
2.33600	0.00000	0.00000
2.33800	5.77280	89.01000
2.34000	5.77280	89.01000
2.34200	5.77280	89.10000
2.34400	0.00000	0.00000
2.34600	5.77280	89.10000
2.34800	5.77280	89.19000
2.35000	0.00000	0.00000
2.35200	5.95320	89.19000
2.35400	5.95320	89.19000
2.35600	5.95320	89.37000
2.35800	0.00000	0.00000
2.36000	6.04340	89.37000
2.36200	6.13360	89.37000
2.36400	6.13360	89.37000
2.36600	0.00000	0.00000
2.36800	6.13360	89.28000
2.37000	0.00000	0.00000
2.37200	0.00000	89.46000
2.37400	5.95320	89.46000
2.37600	6.04340	89.55000
2.37800	6.13360	89.55000
2.38000	0.00000	0.00000
2.38200	6.13360	89.64000
2.38400	6.13360	89.64000
2.38600	5.95320	89.55000
2.38800	0.00000	0.00000
2.39000	6.13360	89.64000
2.39200	6.13360	89.64000
2.39400	6.13360	89.64000
2.39600	6.13360	89.64000
2.39800	6.13360	89.64000
2.40000	6.13360	0.00000
2.40200	0.00000	0.00000
2.40400	6.04340	89.55000
2.40600	6.13360	89.64000
2.40800	0.00000	0.00000
2.41000	0.00000	89.73000
2.41200	6.04340	89.73000
2.41400	6.22380	89.73000
2.41600	6.22380	89.64000
2.41800	6.40420	89.55000
2.42000	6.40420	89.55000
2.42200	6.49440	89.55000
2.42400	0.00000	0.00000
2.42600	6.49440	89.55000
2.42800	6.58460	89.55000
2.43000	6.58460	89.64000
2.43200	0.00000	0.00000
2.43400	6.58460	89.55000
2.43600	6.67480	89.64000
2.43800	6.76500	89.64000
2.44000	6.67480	89.55000
2.44200	6.67480	89.55000
2.44400	0.00000	0.00000
2.44600	0.00000	0.00000
2.44800	6.67480	89.37000
2.45000	6.67480	89.37000
2.45200	6.49440	89.55000
2.45400	0.00000	0.00000
2.45600	6.31400	89.37000
2.45800	6.22380	89.46000
2.46000	6.13360	89.46000
2.46200	0.00000	0.00000
2.46400	5.95320	89.46000
2.46600	5.86300	89.55000
2.46800	5.86300	89.55000
2.47000	0.00000	0.00000
2.47200	5.77280	89.46000
2.47400	5.77280	89.37000
2.47600	0.00000	0.00000
2.47800	5.77280	89.37000
2.48000	5.77280	89.28000
2.48200	5.86300	89.19000
2.48400	0.00000	0.00000
2.48600	6.04340	89.10000
2.48800	6.13360	89.19000
2.49000	6.40420	89.19000
2.49200	0.00000	0.00000
2.49400	6.58460	89.10000
2.49600	6.67480	89.28000
2.49800	0.00000	0.00000
2.50000	6.76500	89.10000
2.50200	6.94540	89.10000
2.50400	7.12580	89.10000
2.50600	0.00000	0.00000
2.50800	7.30620	89.10000
2.51000	7.30620	89.01000
2.51200	7.39640	89.10000
2.51400	0.00000	0.00000
2.51600	7.57680	89.01000
2.51800	7.66700	89.01000
2.52000	7.66700	89.01000
2.52200	0.00000	0.00000
2.52400	7.66700	89.01000
2.52600	7.75720	89.01000
2.52800	0.00000	0.00000
2.53000	7.84740	89.01000
2.53200	7.84740	89.10000
2.53400	7.84740	89.10000
2.53600	0.00000	0.00000
2.53800	7.75720	89.10000
2.54000	7.66700	89.10000
2.54200	7.57680	89.01000
2.54400	0.00000	0.00000
2.54600	7.57680	89.10000
2.54800	7.57680	89.19000
2.55000	0.00000	0.00000
2.55200	7.57680	89.19000
2.55400	7.57680	89.19000
2.55600	7.75720	89.37000
2.55800	0.00000	0.00000
2.56000	7.75720	89.55000
2.56200	7.84740	89.55000
2.56400	7.84740	89.55000
2.56600	0.00000	0.00000
2.56800	8.11800	89.55000
2.57000	8.29840	89.64000
2.57200	8.38860	89.64000
2.57400	0.00000	0.00000
2.57600	8.65920	89.55000
2.57800	8.74940	89.55000
2.58000	0.00000	0.00000
2.58200	9.02000	89.55000
2.58400	9.02000	89.55000
2.58600	9.11020	89.55000
2.58800	0.00000	0.00000
2.59000	9.29060	89.37000
2.59200	9.38080	89.46000
2.59400	9.38080	89.55000
2.59600	0.00000	0.00000
2.59800	9.38080	89.55000
2.60000	9.38080	89.55000
2.60200	0.00000	0.00000
2.60400	9.56120	89.46000
2.60600	9.56120	89.37000
2.60800	9.56120	89.37000
2.61000	0.00000	0.00000
2.61200	9.38080	89.37000
2.61400	9.38080	89.19000
2.61600	9.29060	89.28000
2.61800	0.00000	0.00000
2.62000	9.20040	89.46000
2.62200	9.29060	89.37000
2.62400	0.00000	0.00000
2.62600	9.38080	89.10000
2.62800	9.38080	89.10000
2.63000	9.38080	89.10000
2.63200	0.00000	0.00000
2.63400	9.38080	88.92000
2.63600	9.56120	89.01000
2.63800	9.74160	88.92000
2.64000	0.00000	0.00000
2.64200	9.83180	88.83000
2.64400	9.92200	88.83000
2.64600	10.10240	89.01000
2.64800	0.00000	0.00000
2.65000	10.28280	89.01000
2.65200	10.37300	88.92000
2.65400	0.00000	0.00000
2.65600	10.46320	88.92000
2.65800	10.46320	88.83000
2.66000	10.46320	88.92000
2.66200	0.00000	0.00000
2.66400	10.46320	88.92000
2.66600	10.28280	88.92000
2.66800	10.19260	89.10000
2.67000	0.00000	0.00000
2.67200	10.01220	89.01000
2.67400	9.92200	89.01000
2.67600	0.00000	0.00000
2.67800	9.83180	89.10000
2.68000	9.74160	89.10000
2.68200	0.00000	0.00000
2.68400	9.56120	89.10000
2.68600	9.38080	89.19000
2.68800	9.38080	89.28000
2.69000	0.00000	0.00000
2.69200	9.29060	89.01000
2.69400	9.29060	89.10000
2.69600	0.00000	0.00000
2.69800	9.20040	89.19000
2.70000	9.29060	89.28000
2.70200	9.38080	89.46000
2.70400	0.00000	0.00000
2.70600	9.56120	89.64000
2.70800	9.74160	89.73000
2.71000	9.83180	89.64000
2.71200	0.00000	0.00000
2.71400	9.92200	89.64000
2.71600	10.10240	89.64000
2.71800	0.00000	0.00000
2.72000	10.19260	89.55000
2.72200	10.28280	89.55000
2.72400	10.28280	89.55000
2.72600	0.00000	0.00000
2.72800	10.46320	89.73000
2.73000	10.55340	89.73000
2.73200	10.46320	89.73000
2.73400	0.00000	0.00000
2.73600	10.19260	89.73000
2.73800	10.28280	89.55000
2.74000	10.28280	89.55000
2.74200	10.19260	89.55000
2.74400	10.10240	89.73000
2.74600	9.83180	89.64000
2.74800	0.00000	0.00000
2.75000	9.56120	89.73000
2.75200	9.38080	89.73000
2.75400	9.29060	89.73000
2.75600	0.00000	0.00000
2.75800	9.11020	89.73000
2.76000	9.11020	89.64000
2.76200	9.02000	89.55000
2.76400	0.00000	0.00000
2.76600	8.92980	89.46000
2.76800	8.92980	89.55000
2.77000	0.00000	0.00000
2.77200	9.02000	89.55000
2.77400	9.02000	89.55000
2.77600	9.02000	89.55000
2.77800	0.00000	0.00000
2.78000	9.02000	89.37000
2.78200	8.92980	89.37000
2.78400	9.02000	89.37000
2.78600	0.00000	0.00000
2.78800	8.92980	89.46000
2.79000	8.92980	89.37000
2.79200	8.92980	89.28000
2.79400	9.02000	89.28000
2.79600	9.02000	89.28000
2.79800	9.02000	89.28000
2.80000	0.00000	0.00000
2.80200	9.02000	89.10000
2.80400	8.92980	89.19000
2.80600	8.74940	89.19000
2.80800	0.00000	0.00000
2.81000	8.74940	89.10000
2.81200	8.47880	89.19000
2.81400	8.56900	89.10000
2.81600	0.00000	0.00000
2.81800	8.47880	89.01000
2.82000	8.38860	89.01000
2.82200	0.00000	0.00000
2.82400	8.38860	89.01000
2.82600	8.38860	89.01000
2.82800	8.47880	88.92000
2.83000	0.00000	0.00000
2.83200	8.47880	88.92000
2.83400	8.47880	88.83000
2.83600	8.56900	88.83000
2.83800	0.00000	0.00000
2.84000	8.47880	88.83000
2.84200	8.38860	88.74000
2.84400	0.00000	0.00000
2.84600	8.56900	88.92000
2.84800	8.56900	88.92000
2.85000	8.56900	88.83000
2.85200	0.00000	0.00000
2.85400	8.74940	88.74000
2.85600	8.92980	88.83000
2.85800	9.02000	88.83000
2.86000	0.00000	0.00000
2.86200	9.20040	88.83000
2.86400	9.29060	88.83000
2.86600	9.47100	88.92000
2.86800	0.00000	0.00000
2.87000	9.56120	88.83000
2.87200	9.65140	88.83000
2.87400	0.00000	0.00000
2.87600	9.74160	88.92000
2.87800	9.74160	88.92000
2.88000	9.65140	88.92000
2.88200	0.00000	0.00000
2.88400	9.83180	89.10000
2.88600	9.83180	89.01000
2.88800	9.65140	89.10000
2.89000	0.00000	0.00000
2.89200	9.74160	89.01000
2.89400	9.74160	89.10000
2.89600	0.00000	0.00000
2.89800	9.74160	89.10000
2.90000	9.65140	89.19000
2.90200	9.56120	89.28000
2.90400	0.00000	0.00000
2.90600	9.47100	89.28000
2.90800	9.47100	89.28000
2.91000	9.47100	89.28000
2.91200	0.00000	0.00000
2.91400	9.38080	89.28000
2.91600	9.38080	89.28000
2.91800	9.47100	89.37000
2.92000	0.00000	0.00000
2.92200	9.47100	89.64000
2.92400	9.47100	89.55000
2.92600	9.56120	89.55000
2.92800	0.00000	0.00000
2.93000	9.74160	89.64000
2.93200	9.92200	89.55000
2.93400	0.00000	0.00000
2.93600	10.10240	89.64000
2.93800	10.19260	89.46000
2.94000	10.28280	89.46000
2.94200	0.00000	0.00000
2.94400	10.46320	89.37000
2.94600	10.55340	89.46000
2.94800	10.46320	89.46000
2.95000	0.00000	0.00000
2.95200	10.37300	89.46000
2.95400	10.46320	89.37000
2.95600	0.00000	0.00000
2.95800	10.46320	89.37000
2.96000	10.46320	89.37000
2.96200	10.37300	89.46000
2.96400	0.00000	0.00000
2.96600	10.28280	89.46000
2.96800	10.10240	89.46000
2.97000	9.92200	89.37000
2.97200	0.00000	0.00000
2.97400	9.92200	89.28000
2.97600	9.83180	89.28000
2.97800	0.00000	0.00000
2.98000	9.83180	89.28000
2.98200	9.83180	89.28000
2.98400	9.83180	89.19000
2.98600	0.00000	0.00000
2.98800	9.83180	89.01000
2.99000	9.74160	89.10000
2.99200	9.65140	89.01000
2.99400	0.00000	0.00000
2.99600	9.65140	89.10000
2.99800	9.74160	89.10000
3.00000	9.74160	89.10000
3.00200	0.00000	0.00000
3.00400	9.83180	89.10000
3.00600	9.92200	89.28000
3.00800	0.00000	0.00000
3.01000	9.92200	89.28000
3.01200	10.01220	89.28000
3.01400	10.10240	89.28000
3.01600	0.00000	0.00000
3.01800	10.01220	89.28000
3.02000	9.92200	89.28000
3.02200	9.92200	89.19000
3.02400	0.00000	0.00000
3.02600	9.83180	89.19000
3.02800	9.83180	89.19000
3.03000	0.00000	0.00000
3.03200	9.92200	89.10000
3.03400	9.83180	89.19000
3.03600	9.83180	89.19000
3.03800	0.00000	0.00000
3.04000	9.83180	89.10000
3.04200	9.74160	89.28000
3.04400	9.74160	89.28000
3.04600	0.00000	0.00000
3.04800	9.65140	89.28000
3.05000	9.65140	89.37000
3.05200	0.00000	0.00000
3.05400	9.56120	89.28000
3.05600	9.65140	89.28000
3.05800	0.00000	0.00000
3.06000	9.47100	89.19000
3.06200	9.47100	89.19000
3.06400	9.65140	89.19000
3.06600	9.65140	89.19000
3.06800	0.00000	0.00000
3.07000	9.56120	89.28000
3.07200	9.56120	89.28000
3.07400	0.00000	0.00000
3.07600	9.56120	89.46000
3.07800	9.47100	89.37000
3.08000	0.00000	0.00000
3.08200	0.00000	0.00000
3.08400	9.38080	89.28000
3.08600	9.38080	89.37000
3.08800	9.38080	89.37000
3.09000	0.00000	0.00000
3.09200	9.38080	89.46000
3.09400	0.00000	0.00000
3.09600	0.00000	0.00000
3.09800	9.47100	89.46000
3.10000	9.38080	89.64000
3.10200	0.00000	0.00000
3.10400	0.00000	0.00000
3.10600	9.38080	89.64000
3.10800	9.38080	89.55000
3.11000	9.38080	89.55000
3.11200	0.00000	0.00000
3.11400	9.29060	89.55000
3.11600	9.11020	89.55000
3.11800	0.00000	0.00000
3.12000	9.11020	89.55000
3.12200	9.11020	89.46000
3.12400	9.20040	89.55000
3.12600	0.00000	0.00000
3.12800	9.20040	89.46000
3.13000	9.38080	89.37000
3.13200	9.38080	89.37000
3.13400	0.00000	0.00000
3.13600	9.47100	89.46000
3.13800	9.65140	89.10000
3.14000	9.65140	89.10000
3.14200	0.00000	0.00000
3.14400	9.83180	89.28000
3.14600	0.00000	0.00000
3.14800	0.00000	0.00000
3.15000	9.92200	89.19000
3.15200	10.01220	89.10000
3.15400	10.01220	89.10000
3.15600	0.00000	0.00000
3.15800	10.19260	89.10000
3.16000	10.10240	89.10000
3.16200	10.10240	0.00000
3.16400	0.00000	0.00000
3.16600	10.10240	89.01000
3.16800	0.00000	0.00000
3.17000	0.00000	0.00000
3.17200	10.37300	88.92000
3.17400	10.55340	88.92000
3.17600	10.55340	88.92000
3.17800	0.00000	0.00000
3.18000	10.82400	88.83000
3.18200	10.91420	88.83000
3.18400	11.00440	0.00000
3.18600	0.00000	0.00000
3.18800	11.27500	88.74000
3.19000	11.36520	88.74000
3.19200	0.00000	0.00000
3.19400	0.00000	88.65000
3.19600	11.36520	88.65000
3.19800	0.00000	0.00000
3.20000	0.00000	0.00000
3.20200	11.54560	88.92000
3.20400	11.54560	88.83000
3.20600	11.54560	88.74000
3.20800	0.00000	0.00000
3.21000	11.63580	88.74000
3.21200	11.72600	88.74000
3.21400	0.00000	0.00000
3.21600	0.00000	0.00000
3.21800	11.81620	88.74000
3.22000	11.81620	88.83000
3.22200	11.81620	88.83000
3.22400	11.90640	88.83000
3.22600	11.90640	88.83000
3.22800	11.99660	88.92000
3.23000	0.00000	0.00000
3.23200	11.90640	88.83000
3.23400	11.81620	89.01000
3.23600	11.72600	89.10000
3.23800	0.00000	0.00000
3.24000	11.72600	89.10000
3.24200	11.63580	89.19000
3.24400	11.54560	89.19000
3.24600	0.00000	0.00000
3.24800	11.72600	89.37000
3.25000	11.63580	89.37000
3.25200	0.00000	0.00000
3.25400	11.63580	89.46000
3.25600	11.54560	89.46000
3.25800	11.36520	89.37000
3.26000	0.00000	0.00000
3.26200	11.27500	89.37000
3.26400	11.27500	89.55000
3.26600	11.00440	89.55000
3.26800	0.00000	0.00000
3.27000	10.73380	89.64000
3.27200	10.64360	89.55000
3.27400	0.00000	0.00000
3.27600	10.37300	89.64000
3.27800	10.37300	89.64000
3.28000	10.28280	0.00000
3.28200	0.00000	0.00000
3.28400	10.19260	89.55000
3.28600	10.10240	89.73000
3.28800	10.19260	0.00000
3.29000	0.00000	0.00000
3.29200	10.01220	89.73000
3.29400	0.00000	0.00000
3.29600	0.00000	0.00000
3.29800	10.28280	89.46000
3.30000	10.28280	89.46000
3.30200	0.00000	0.00000
3.30400	0.00000	0.00000
3.30600	10.46320	89.46000
3.30800	10.55340	89.55000
3.31000	10.46320	0.00000
3.31200	0.00000	0.00000
3.31400	10.46320	89.28000
3.31600	10.46320	89.37000
3.31800	10.55340	89.37000
3.32000	10.64360	89.28000
3.32200	10.64360	89.28000
3.32400	10.82400	0.00000
3.32600	0.00000	0.00000
3.32800	11.00440	89.10000
3.33000	11.00440	89.19000
3.33200	11.09460	0.00000
3.33400	0.00000	0.00000
3.33600	11.09460	88.92000
3.33800	11.18480	88.92000
3.34000	11.18480	88.83000
3.34200	0.00000	0.00000
3.34400	11.09460	89.01000
3.34600	0.00000	0.00000
3.34800	0.00000	0.00000
3.35000	11.36520	88.83000
3.35200	11.27500	88.92000
3.35400	11.18480	88.92000
3.35600	0.00000	0.00000
3.35800	11.09460	88.83000
3.36000	11.09460	88.74000
3.36200	11.18480	88.83000
3.36400	0.00000	0.00000
3.36600	11.00440	88.83000
3.36800	10.82400	88.74000
3.37000	0.00000	0.00000
3.37200	10.82400	88.74000
3.37400	10.73380	88.92000
3.37600	0.00000	0.00000
3.37800	0.00000	0.00000
3.38000	10.64360	89.19000
3.38200	10.55340	89.10000
3.38400	10.37300	89.01000
3.38600	0.00000	0.00000
3.38800	10.19260	88.92000
3.39000	10.10240	88.92000
3.39200	10.10240	88.92000
3.39400	10.01220	88.92000
3.39600	9.92200	88.92000
3.39800	9.92200	89.10000
3.40000	0.00000	0.00000
3.40200	10.01220	89.10000
3.40400	10.10240	89.19000
3.40600	10.19260	89.19000
3.40800	0.00000	0.00000
3.41000	10.19260	89.10000
3.41200	10.19260	89.10000
3.41400	10.19260	89.10000
3.41600	0.00000	0.00000
3.41800	10.28280	89.19000
3.42000	10.28280	89.19000
3.42200	0.00000	0.00000
3.42400	10.28280	89.19000
3.42600	10.19260	89.10000
3.42800	10.28280	89.10000
3.43000	0.00000	0.00000
3.43200	10.28280	89.19000
3.43400	10.19260	89.28000
3.43600	10.28280	89.19000
3.43800	0.00000	0.00000
3.44000	10.28280	89.19000
3.44200	10.37300	89.10000
3.44400	10.46320	89.10000
3.44600	0.00000	0.00000
3.44800	10.37300	89.10000
3.45000	10.28280	89.10000
3.45200	10.19260	89.10000
3.45400	0.00000	0.00000
3.45600	10.28280	89.19000
3.45800	10.19260	89.10000
3.46000	0.00000	0.00000
3.46200	10.28280	89.19000
3.46400	10.28280	89.10000
3.46600	10.28280	89.19000
3.46800	0.00000	0.00000
3.47000	10.19260	89.10000
3.47200	10.10240	89.19000
3.47400	10.01220	89.28000
3.47600	0.00000	0.00000
3.47800	10.01220	89.37000
3.48000	10.10240	89.28000
3.48200	0.00000	0.00000
3.48400	10.19260	89.19000
3.48600	10.19260	89.10000
3.48800	10.01220	89.10000
3.49000	0.00000	0.00000
3.49200	10.10240	89.19000
3.49400	10.10240	89.28000
3.49600	10.19260	89.28000
3.49800	0.00000	0.00000
3.50000	10.28280	89.19000
3.50200	10.37300	89.19000
3.50400	0.00000	0.00000
3.50600	10.46320	89.19000
3.50800	10.46320	89.28000
3.51000	0.00000	0.00000
3.51200	0.00000	0.00000
3.51400	10.55340	89.10000
3.51600	10.55340	89.10000
3.51800	10.73380	89.19000
3.52000	0.00000	0.00000
3.52200	10.64360	89.19000
3.52400	0.00000	0.00000
3.52600	0.00000	0.00000
3.52800	10.64360	89.10000
3.53000	10.64360	89.10000
3.53200	10.73380	0.00000
3.53400	0.00000	0.00000
3.53600	10.64360	89.10000
3.53800	10.55340	89.01000
3.54000	10.55340	89.01000
3.54200	0.00000	0.00000
3.54400	10.46320	89.10000
3.54600	10.55340	89.10000
3.54800	10.46320	89.10000
3.55000	10.37300	89.19000
3.55200	10.55340	89.19000
3.55400	10.46320	0.00000
3.55600	0.00000	0.00000
3.55800	10.37300	89.28000
3.56000	10.28280	89.28000
3.56200	10.28280	89.28000
3.56400	0.00000	0.00000
3.56600	10.28280	89.28000
3.56800	10.19260	89.28000
3.57000	10.28280	89.19000
3.57200	0.00000	0.00000
3.57400	10.28280	89.19000
3.57600	10.28280	89.19000
3.57800	0.00000	0.00000
3.58000	10.37300	89.10000
3.58200	10.28280	89.19000
3.58400	10.28280	89.19000
3.58600	0.00000	0.00000
3.58800	10.37300	89.19000
3.59000	10.37300	89.28000
3.59200	10.55340	89.28000
3.59400	0.00000	0.00000
3.59600	10.64360	89.37000
3.59800	10.73380	89.28000
3.60000	0.00000	0.00000
3.60200	10.82400	89.19000
3.60400	10.82400	89.19000
3.60600	10.82400	89.10000
3.60800	0.00000	0.00000
3.61000	10.91420	89.10000
3.61200	10.91420	89.19000
3.61400	10.91420	89.19000
3.61600	10.82400	89.10000
3.61800	10.91420	89.28000
3.62000	0.00000	0.00000
3.62200	0.00000	0.00000
3.62400	11.00440	89.28000
3.62600	11.09460	89.28000
3.62800	11.09460	89.28000
3.63000	0.00000	0.00000
3.63200	11.27500	89.19000
3.63400	11.27500	89.10000
3.63600	11.27500	89.10000
3.63800	0.00000	0.00000
3.64000	11.27500	89.19000
3.64200	11.18480	89.10000
3.64400	11.27500	89.01000
3.64600	0.00000	0.00000
3.64800	11.18480	89.01000
3.65000	11.18480	89.01000
3.65200	0.00000	0.00000
3.65400	11.18480	88.92000
3.65600	11.09460	89.10000
3.65800	11.09460	89.01000
3.66000	0.00000	0.00000
3.66200	11.00440	89.01000
3.66400	11.09460	89.01000
3.66600	11.09460	89.01000
3.66800	0.00000	0.00000
3.67000	11.00440	88.92000
3.67200	11.00440	88.92000
3.67400	0.00000	0.00000
3.67600	11.18480	88.83000
3.67800	11.18480	88.92000
3.68000	0.00000	0.00000
3.68200	11.27500	88.92000
3.68400	11.27500	89.01000
3.68600	11.36520	89.01000
3.68800	0.00000	0.00000
3.69000	11.36520	88.92000
3.69200	0.00000	0.00000
3.69400	0.00000	0.00000
3.69600	11.45540	88.83000
3.69800	11.45540	88.83000
3.70000	11.36520	88.83000
3.70200	0.00000	0.00000
3.70400	11.63580	88.83000
3.70600	11.63580	88.83000
3.70800	11.72600	88.74000
3.71000	11.72600	88.92000
3.71200	11.81620	88.92000
3.71400	11.81620	0.00000
3.71600	0.00000	0.00000
3.71800	11.72600	89.01000
3.72000	11.72600	89.01000
3.72200	11.72600	0.00000
3.72400	0.00000	0.00000
3.72600	11.90640	89.01000
3.72800	11.81620	89.01000
3.73000	11.81620	88.92000
3.73200	0.00000	0.00000
3.73400	11.90640	88.92000
3.73600	11.81620	89.01000
3.73800	0.00000	0.00000
3.74000	11.81620	88.92000
3.74200	11.90640	88.92000
3.74400	11.90640	89.10000
3.74600	0.00000	0.00000
3.74800	11.99660	89.19000
3.75000	12.08680	89.19000
3.75200	11.99660	89.28000
3.75400	0.00000	0.00000
3.75600	11.90640	89.10000
3.75800	11.99660	89.10000
3.76000	11.90640	89.19000
3.76200	0.00000	0.00000
3.76400	11.63580	89.19000
3.76600	0.00000	0.00000
3.76800	0.00000	0.00000
3.77000	11.72600	89.37000
3.77200	11.72600	89.28000
3.77400	11.63580	0.00000
3.77600	0.00000	0.00000
3.77800	11.72600	89.19000
3.78000	11.63580	89.19000
3.78200	11.54560	89.37000
3.78400	0.00000	0.00000
3.78600	11.72600	89.28000
3.78800	0.00000	0.00000
3.79000	0.00000	0.00000
3.79200	11.90640	89.46000
3.79400	11.90640	89.28000
3.79600	0.00000	0.00000
3.79800	0.00000	0.00000
3.80000	11.72600	89.37000
3.80200	11.63580	89.28000
3.80400	11.54560	89.10000
3.80600	0.00000	0.00000
3.80800	11.27500	89.37000
3.81000	11.18480	89.28000
3.81200	11.18480	89.28000
3.81400	0.00000	0.00000
3.81600	11.18480	89.28000
3.81800	11.09460	89.37000
3.82000	0.00000	0.00000
3.82200	11.18480	89.28000
3.82400	11.18480	89.46000
3.82600	0.00000	0.00000
3.82800	0.00000	0.00000
3.83000	11.36520	89.28000
3.83200	11.36520	89.19000
3.83400	11.36520	89.19000
3.83600	0.00000	0.00000
3.83800	11.54560	89.28000
3.84000	11.54560	89.37000
3.84200	0.00000	0.00000
3.84400	11.54560	89.37000
3.84600	11.54560	89.28000
3.84800	11.54560	89.28000
3.85000	0.00000	0.00000
3.85200	11.63580	89.28000
3.85400	11.63580	89.28000
3.85600	11.63580	89.19000
3.85800	0.00000	0.00000
3.86000	11.63580	89.19000
3.86200	11.54560	89.19000
3.86400	0.00000	0.00000
3.86600	11.54560	89.10000
3.86800	11.45540	89.10000
3.87000	11.45540	89.10000
3.87200	0.00000	0.00000
3.87400	11.36520	88.92000
3.87600	11.27500	88.92000
3.87800	0.00000	0.00000
3.88000	0.00000	0.00000
3.88200	11.09460	88.92000
3.88400	11.09460	89.01000
3.88600	11.00440	89.01000
3.88800	0.00000	0.00000
3.89000	11.00440	88.92000
3.89200	10.91420	89.01000
3.89400	0.00000	0.00000
3.89600	10.82400	89.01000
3.89800	10.73380	89.10000
3.90000	0.00000	0.00000
3.90200	0.00000	0.00000
3.90400	10.64360	89.10000
3.90600	10.64360	89.01000
3.90800	10.73380	89.10000
3.91000	0.00000	0.00000
3.91200	10.73380	89.01000
3.91400	0.00000	0.00000
3.91600	0.00000	0.00000
3.91800	10.64360	89.01000
3.92000	10.73380	88.92000
3.92200	0.00000	0.00000
3.92400	0.00000	0.00000
3.92600	10.55340	89.01000
3.92800	10.64360	88.92000
3.93000	10.55340	0.00000
3.93200	0.00000	0.00000
3.93400	10.64360	89.01000
3.93600	10.55340	89.01000
3.93800	10.46320	89.01000
3.94000	0.00000	0.00000
3.94200	10.46320	89.10000
3.94400	10.46320	89.10000
3.94600	0.00000	0.00000
3.94800	0.00000	0.00000
3.95000	10.28280	89.10000
3.95200	10.37300	0.00000
3.95400	0.00000	0.00000
3.95600	10.19260	89.01000
3.95800	10.19260	89.10000
3.96000	10.10240	89.10000
3.96200	0.00000	0.00000
3.96400	9.92200	89.01000
3.96600	9.92200	88.92000
3.96800	9.92200	89.01000
3.97000	0.00000	0.00000
3.97200	9.83180	88.92000
3.97400	9.83180	88.92000
3.97600	0.00000	0.00000
3.97800	9.83180	89.01000
3.98000	9.74160	89.01000
3.98200	9.65140	89.01000
3.98400	0.00000	0.00000
3.98600	9.65140	88.92000
3.98800	9.74160	89.01000
3.99000	9.83180	89.01000
3.99200	0.00000	0.00000
3.99400	9.65140	89.01000
3.99600	9.65140	88.92000
3.99800	9.74160	89.01000
4.00000	9.83180	89.01000
4.00200	9.92200	89.01000
4.00400	0.00000	0.00000
4.00600	0.00000	0.00000
4.00800	10.01220	88.92000
4.01000	10.19260	88.83000
4.01200	10.28280	88.83000
4.01400	0.00000	0.00000
4.01600	10.55340	88.83000
4.01800	10.55340	88.92000
4.02000	0.00000	0.00000
4.02200	10.64360	88.83000
4.02400	10.82400	88.74000
4.02600	10.73380	88.74000
4.02800	0.00000	0.00000
4.03000	10.73380	88.83000
4.03200	10.64360	88.74000
4.03400	10.73380	88.83000
4.03600	0.00000	0.00000
4.03800	10.82400	88.83000
4.04000	0.00000	0.00000
4.04200	0.00000	0.00000
4.04400	10.82400	88.92000
4.04600	10.82400	88.92000
4.04800	10.64360	88.92000
4.05000	0.00000	89.01000
4.05200	10.55340	89.01000
4.05400	10.73380	88.92000
4.05600	10.64360	88.92000
4.05800	0.00000	0.00000
4.06000	10.55340	89.01000
4.06200	10.46320	0.00000
4.06400	0.00000	0.00000
4.06600	10.46320	88.92000
4.06800	10.55340	88.83000
4.07000	0.00000	0.00000
4.07200	0.00000	0.00000
4.07400	10.37300	89.10000
4.07600	10.46320	89.10000
4.07800	10.46320	89.01000
4.08000	0.00000	0.00000
4.08200	10.46320	89.10000
4.08400	10.55340	89.28000
4.08600	10.55340	89.28000
4.08800	0.00000	0.00000
4.09000	10.55340	89.19000
4.09200	0.00000	0.00000
4.09400	0.00000	0.00000
4.09600	10.73380	89.19000
4.09800	10.82400	89.10000
4.10000	0.00000	0.00000
4.10200	0.00000	0.00000
4.10400	11.27500	89.37000
4.10600	11.27500	89.28000
4.10800	11.36520	89.37000
4.11000	0.00000	0.00000
4.11200	11.63580	89.28000
4.11400	11.81620	89.19000
4.11600	0.00000	0.00000
4.11800	12.08680	89.19000
4.12000	12.08680	89.01000
4.12200	12.26720	89.10000
4.12400	0.00000	0.00000
4.12600	12.35740	89.10000
4.12800	12.35740	89.10000
4.13000	12.35740	89.10000
4.13200	0.00000	0.00000
4.13400	12.26720	89.19000
4.13600	12.17700	89.19000
4.13800	0.00000	0.00000
4.14000	11.99660	89.10000
4.14200	12.08680	89.10000
4.14400	12.08680	89.10000
4.14600	0.00000	0.00000
4.14800	12.08680	89.10000
4.15000	12.08680	89.10000
4.15200	12.08680	89.10000
4.15400	0.00000	0.00000
4.15600	12.08680	89.01000
4.15800	11.99660	89.01000
4.16000	11.99660	89.10000
4.16200	0.00000	0.00000
4.16400	12.17700	89.01000
4.16600	12.26720	88.92000
4.16800	0.00000	0.00000
4.17000	12.35740	88.83000
4.17200	12.53780	89.01000
4.17400	12.62800	89.01000
4.17600	0.00000	0.00000
4.17800	12.71820	89.10000
4.18000	12.71820	89.10000
4.18200	12.62800	89.10000
4.18400	0.00000	0.00000
4.18600	12.71820	89.01000
4.18800	12.62800	88.92000
4.19000	12.71820	88.83000
4.19200	0.00000	0.00000
4.19400	12.62800	88.92000
4.19600	12.62800	88.92000
4.19800	0.00000	0.00000
4.20000	12.44760	88.92000
4.20200	12.44760	88.92000
4.20400	12.26720	89.01000
4.20600	0.00000	0.00000
4.20800	12.17700	88.92000
4.21000	12.17700	88.92000
4.21200	12.17700	88.83000
4.21400	0.00000	0.00000
4.21600	11.90640	88.92000
4.21800	11.90640	88.92000
4.22000	0.00000	0.00000
4.22200	11.81620	88.92000
4.22400	11.81620	89.01000
4.22600	11.72600	88.92000
4.22800	0.00000	0.00000
4.23000	11.72600	88.92000
4.23200	11.63580	88.83000
4.23400	11.63580	88.92000
4.23600	0.00000	0.00000
4.23800	11.63580	89.01000
4.24000	11.54560	89.01000
4.24200	0.00000	0.00000
4.24400	11.54560	89.10000
4.24600	11.45540	89.10000
4.24800	11.45540	89.10000
4.25000	0.00000	0.00000
4.25200	11.36520	89.10000
4.25400	11.45540	89.10000
4.25600	11.36520	89.01000
4.25800	0.00000	0.00000
4.26000	11.54560	88.92000
4.26200	11.45540	89.10000
4.26400	11.36520	89.10000
4.26600	0.00000	0.00000
4.26800	11.27500	89.10000
4.27000	11.36520	89.10000
4.27200	0.00000	0.00000
4.27400	11.36520	89.19000
4.27600	11.27500	89.10000
4.27800	11.36520	89.10000
4.28000	0.00000	0.00000
4.28200	11.36520	89.10000
4.28400	11.36520	89.10000
4.28600	11.45540	89.10000
4.28800	0.00000	0.00000
4.29000	11.63580	89.01000
4.29200	11.63580	88.92000
4.29400	0.00000	0.00000
4.29600	11.63580	89.01000
4.29800	11.63580	89.01000
4.30000	11.63580	89.01000
4.30200	0.00000	0.00000
4.30400	11.54560	89.10000
4.30600	11.54560	89.01000
4.30800	11.54560	89.01000
4.31000	0.00000	0.00000
4.31200	11.36520	89.01000
4.31400	11.36520	89.10000
4.31600	11.36520	89.01000
4.31800	0.00000	0.00000
4.32000	11.27500	88.92000
4.32200	11.27500	88.92000
4.32400	0.00000	0.00000
4.32600	11.36520	89.01000
4.32800	11.27500	89.01000
4.33000	11.27500	89.01000
4.33200	0.00000	0.00000
4.33400	11.18480	88.92000
4.33600	11.27500	88.92000
4.33800	11.18480	88.92000
4.34000	0.00000	0.00000
4.34200	11.27500	88.92000
4.34400	11.27500	88.92000
4.34600	0.00000	0.00000
4.34800	11.27500	88.92000
4.35000	11.18480	88.92000
4.35200	11.09460	88.92000
4.35400	0.00000	0.00000
4.35600	11.18480	88.83000
4.35800	11.27500	88.92000
4.36000	11.18480	88.92000
4.36200	0.00000	0.00000
4.36400	11.27500	88.74000
4.36600	11.27500	89.01000
4.36800	0.00000	0.00000
4.37000	11.27500	88.92000
4.37200	11.27500	89.01000
4.37400	11.36520	89.01000
4.37600	0.00000	0.00000
4.37800	11.45540	88.74000
4.38000	11.54560	88.74000
4.38200	11.63580	88.65000
4.38400	0.00000	0.00000
4.38600	11.72600	88.56000
4.38800	11.72600	88.65000
4.39000	11.72600	88.74000
4.39200	11.63580	88.83000
4.39400	11.72600	88.92000
4.39600	11.63580	88.92000
4.39800	0.00000	0.00000
4.40000	11.63580	88.92000
4.40200	11.72600	88.83000
4.40400	11.72600	88.83000
4.40600	0.00000	0.00000
4.40800	11.63580	88.83000
4.41000	11.72600	88.92000
4.41200	11.63580	88.92000
4.41400	0.00000	0.00000
4.41600	11.54560	88.92000
4.41800	11.54560	88.92000
4.42000	0.00000	0.00000
4.42200	11.54560	88.92000
4.42400	11.45540	89.10000
4.42600	11.54560	89.10000
4.42800	0.00000	0.00000
4.43000	11.54560	89.19000
4.43200	11.45540	89.19000
4.43400	11.54560	89.19000
4.43600	0.00000	0.00000
4.43800	11.63580	89.19000
4.44000	11.54560	89.10000
4.44200	0.00000	0.00000
4.44400	11.72600	89.10000
4.44600	11.81620	89.19000
4.44800	11.81620	89.19000
4.45000	0.00000	0.00000
4.45200	11.81620	89.10000
4.45400	11.90640	89.28000
4.45600	11.90640	89.19000
4.45800	0.00000	0.00000
4.46000	11.90640	89.28000
4.46200	11.90640	89.19000
4.46400	0.00000	0.00000
4.46600	11.72600	89.19000
4.46800	11.72600	89.37000
4.47000	11.72600	89.37000
4.47200	0.00000	0.00000
4.47400	11.72600	89.19000
4.47600	11.81620	89.19000
4.47800	11.81620	89.28000
4.48000	0.00000	0.00000
4.48200	11.72600	89.28000
4.48400	11.63580	89.19000
4.48600	11.45540	89.28000
4.48800	0.00000	0.00000
4.49000	11.54560	89.28000
4.49200	11.63580	89.19000
4.49400	0.00000	0.00000
4.49600	11.54560	89.10000
4.49800	11.54560	89.01000
4.50000	11.45540	89.01000
4.50200	0.00000	0.00000
4.50400	11.45540	89.01000
4.50600	11.45540	89.01000
4.50800	11.45540	89.01000
4.51000	0.00000	0.00000
4.51200	11.54560	89.10000
4.51400	11.54560	89.10000
4.51600	0.00000	0.00000
4.51800	11.72600	89.01000
4.52000	11.72600	89.01000
4.52200	11.72600	89.10000
4.52400	0.00000	0.00000
4.52600	11.63580	89.10000
4.52800	11.72600	89.10000
4.53000	11.72600	89.01000
4.53200	0.00000	0.00000
4.53400	11.63580	89.10000
4.53600	11.72600	89.01000
4.53800	11.72600	89.01000
4.54000	0.00000	0.00000
4.54200	11.81620	89.01000
4.54400	11.90640	89.01000
4.54600	0.00000	0.00000
4.54800	11.99660	88.92000
4.55000	12.08680	88.92000
4.55200	12.17700	88.83000
4.55400	0.00000	0.00000
4.55600	12.08680	88.92000
4.55800	11.99660	88.92000
4.56000	12.08680	88.92000
4.56200	0.00000	0.00000
4.56400	11.99660	89.01000
4.56600	11.81620	89.01000
4.56800	0.00000	0.00000
4.57000	11.81620	88.83000
4.57200	11.81620	88.83000
4.57400	11.72600	88.83000
4.57600	0.00000	0.00000
4.57800	11.54560	88.83000
4.58000	11.54560	88.83000
4.58200	11.54560	88.92000
4.58400	0.00000	0.00000
4.58600	11.45540	88.92000
4.58800	11.45540	88.92000
4.59000	11.54560	88.92000
4.59200	0.00000	0.00000
4.59400	11.27500	88.92000
4.59600	11.27500	88.92000
4.59800	0.00000	0.00000
4.60000	11.45540	88.83000
4.60200	11.36520	88.92000
4.60400	11.36520	88.92000
4.60600	0.00000	0.00000
4.60800	11.54560	89.10000
4.61000	11.54560	89.10000
4.61200	11.45540	89.10000
4.61400	0.00000	0.00000
4.61600	11.63580	89.19000
4.61800	11.72600	89.10000
4.62000	11.54560	89.28000
4.62200	0.00000	0.00000
4.62400	11.54560	89.10000
4.62600	11.54560	89.10000
4.62800	0.00000	0.00000
4.63000	11.36520	89.28000
4.63200	11.45540	89.19000
4.63400	11.54560	89.19000
4.63600	0.00000	0.00000
4.63800	11.27500	89.10000
4.64000	11.36520	89.01000
4.64200	11.45540	89.01000
4.64400	0.00000	0.00000
4.64600	11.45540	89.19000
4.64800	11.45540	89.19000
4.65000	0.00000	0.00000
4.65200	11.54560	89.01000
4.65400	11.63580	89.01000
4.65600	11.72600	89.01000
4.65800	0.00000	0.00000
4.66000	11.54560	89.10000
4.66200	11.45540	89.01000
4.66400	11.36520	89.10000
4.66600	0.00000	0.00000
4.66800	11.27500	89.01000
4.67000	11.27500	89.01000
4.67200	0.00000	0.00000
4.67400	11.27500	89.01000
4.67600	11.45540	89.01000
4.67800	11.45540	88.92000
4.68000	0.00000	0.00000
4.68200	11.27500	89.01000
4.68400	11.18480	89.01000
4.68600	0.00000	0.00000
4.68800	11.00440	88.92000
4.69000	11.18480	88.92000
4.69200	0.00000	0.00000
4.69400	11.36520	89.01000
4.69600	11.45540	89.01000
4.69800	11.45540	89.01000
4.70000	0.00000	0.00000
4.70200	11.54560	89.01000
4.70400	11.54560	89.10000
4.70600	11.63580	89.10000
4.70800	0.00000	0.00000
4.71000	11.72600	88.92000
4.71200	11.72600	89.01000
4.71400	0.00000	0.00000
4.71600	11.54560	89.01000
4.71800	11.81620	88.92000
4.72000	11.90640	88.92000
4.72200	0.00000	0.00000
4.72400	11.90640	88.92000
4.72600	11.90640	88.92000
4.72800	0.00000	0.00000
4.73000	0.00000	0.00000
4.73200	11.63580	88.92000
4.73400	11.63580	88.83000
4.73600	11.63580	88.83000
4.73800	0.00000	0.00000
4.74000	11.54560	88.83000
4.74200	11.54560	88.92000
4.74400	11.54560	89.01000
4.74600	0.00000	0.00000
4.74800	11.45540	89.10000
4.75000	11.45540	89.10000
4.75200	0.00000	0.00000
4.75400	11.63580	89.19000
4.75600	11.72600	89.19000
4.75800	11.63580	89.10000
4.76000	0.00000	0.00000
4.76200	11.63580	89.19000
4.76400	11.72600	89.19000
4.76600	0.00000	0.00000
4.76800	11.99660	89.10000
4.77000	11.99660	89.10000
4.77200	12.08680	89.01000
4.77400	0.00000	0.00000
4.77600	12.08680	89.01000
4.77800	12.08680	89.01000
4.78000	12.08680	89.10000
4.78200	0.00000	0.00000
4.78400	12.08680	89.01000
4.78600	11.99660	88.92000
4.78800	0.00000	0.00000
4.79000	12.08680	89.10000
4.79200	12.08680	89.01000
4.79400	12.08680	89.01000
4.79600	0.00000	0.00000
4.79800	12.17700	89.19000
4.80000	12.17700	89.01000
4.80200	12.08680	89.01000
4.80400	0.00000	0.00000
4.80600	11.99660	89.10000
4.80800	11.99660	89.01000
4.81000	0.00000	0.00000
4.81200	11.99660	89.10000
4.81400	11.90640	89.10000
4.81600	11.99660	89.10000
4.81800	0.00000	0.00000
4.82000	11.90640	89.01000
4.82200	11.81620	89.01000
4.82400	11.81620	89.10000
4.82600	0.00000	0.00000
4.82800	11.72600	89.01000
4.83000	11.63580	88.92000
4.83200	0.00000	0.00000
4.83400	11.63580	89.10000
4.83600	11.54560	89.01000
4.83800	11.54560	89.01000
4.84000	0.00000	0.00000
4.84200	11.63580	89.10000
4.84400	11.72600	89.10000
4.84600	11.72600	89.10000
4.84800	0.00000	0.00000
4.85000	11.81620	89.01000
4.85200	11.81620	89.01000
4.85400	0.00000	0.00000
4.85600	11.72600	89.10000
4.85800	11.72600	89.10000
4.86000	0.00000	0.00000
4.86200	0.00000	0.00000
4.86400	11.72600	89.19000
4.86600	11.72600	89.10000
4.86800	11.63580	89.10000
4.87000	0.00000	0.00000
4.87200	11.63580	89.10000
4.87400	11.63580	89.19000
4.87600	11.72600	89.10000
4.87800	0.00000	0.00000
4.88000	11.54560	88.92000
4.88200	11.54560	89.01000
4.88400	0.00000	0.00000
4.88600	11.27500	89.01000
4.88800	11.27500	88.92000
4.89000	11.27500	88.92000
4.89200	0.00000	0.00000
4.89400	11.18480	89.01000
4.89600	11.18480	89.01000
4.89800	0.00000	0.00000
4.90000	11.18480	88.83000
4.90200	11.36520	88.83000
4.90400	11.27500	88.92000
4.90600	0.00000	0.00000
4.90800	11.36520	89.01000
4.91000	11.45540	89.10000
4.91200	11.45540	89.01000
4.91400	0.00000	0.00000
4.91600	11.54560	88.83000
4.91800	11.63580	88.83000
4.92000	0.00000	0.00000
4.92200	11.54560	88.83000
4.92400	11.72600	88.74000
4.92600	11.72600	88.83000
4.92800	0.00000	0.00000
4.93000	11.81620	88.83000
4.93200	11.90640	88.92000
4.93400	11.99660	88.83000
4.93600	0.00000	88.92000
4.93800	12.17700	88.92000
4.94000	12.17700	89.01000
4.94200	0.00000	0.00000
4.94400	12.08680	88.92000
4.94600	11.99660	88.83000
4.94800	11.99660	88.83000
4.95000	0.00000	0.00000
4.95200	12.08680	88.92000
4.95400	11.99660	89.01000
4.95600	11.99660	88.92000
4.95800	0.00000	0.00000
4.96000	12.08680	89.01000
4.96200	12.08680	89.10000
4.96400	12.17700	89.01000
4.96600	0.00000	0.00000
4.96800	12.08680	89.01000
4.97000	11.99660	88.92000
4.97200	0.00000	0.00000
4.97400	12.08680	88.83000
4.97600	12.17700	88.74000
4.97800	12.17700	88.92000
4.98000	0.00000	0.00000
4.98200	11.99660	88.83000
4.98400	11.90640	89.10000
4.98600	11.99660	89.28000
4.98800	0.00000	0.00000
4.99000	12.17700	89.28000
4.99200	12.08680	0.00000
4.99400	0.00000	0.00000
4.99600	12.08680	89.19000
4.99800	12.08680	89.19000
5.00000	12.17700	89.28000
5.00200	0.00000	0.00000
5.00400	12.44760	89.01000
5.00600	12.35740	89.10000
5.00800	12.35740	89.10000
5.01000	0.00000	0.00000
5.01200	12.35740	89.01000
5.01400	12.26720	89.01000
5.01600	0.00000	0.00000
5.01800	12.26720	89.01000
5.02000	12.44760	89.10000
5.02200	12.44760	89.01000
5.02400	0.00000	0.00000
5.02600	12.44760	89.01000
5.02800	12.35740	89.01000
5.03000	12.35740	89.10000
5.03200	0.00000	0.00000
5.03400	12.26720	89.10000
5.03600	12.26720	89.01000
5.03800	0.00000	0.00000
5.04000	12.17700	89.10000
5.04200	12.08680	89.10000
5.04400	12.08680	89.10000
5.04600	0.00000	0.00000
5.04800	12.17700	89.01000
5.05000	12.26720	89.10000
5.05200	12.35740	89.10000
5.05400	0.00000	0.00000
5.05600	12.17700	89.01000
5.05800	12.17700	0.00000
5.06000	0.00000	0.00000
5.06200	12.17700	88.92000
5.06400	12.17700	88.92000
5.06600	12.08680	89.01000
5.06800	0.00000	0.00000
5.07000	12.17700	89.10000
5.07200	12.08680	89.10000
5.07400	12.08680	89.01000
5.07600	0.00000	0.00000
5.07800	12.08680	89.10000
5.08000	11.81620	89.10000
5.08200	0.00000	0.00000
5.08400	11.81620	89.10000
5.08600	11.72600	89.01000
5.08800	11.63580	89.10000
5.09000	0.00000	0.00000
5.09200	11.45540	89.10000
5.09400	11.36520	89.19000
5.09600	11.36520	89.01000
5.09800	0.00000	0.00000
5.10000	11.09460	89.01000
5.10200	11.00440	89.01000
5.10400	10.91420	89.01000
5.10600	0.00000	0.00000
5.10800	10.91420	89.01000
5.11000	10.82400	89.01000
5.11200	0.00000	0.00000
5.11400	10.73380	89.01000
5.11600	10.82400	88.92000
5.11800	11.00440	88.83000
5.12000	0.00000	0.00000
5.12200	11.18480	88.83000
5.12400	11.18480	88.92000
5.12600	11.27500	88.83000
5.12800	0.00000	0.00000
5.13000	11.27500	88.92000
5.13200	11.27500	89.01000
5.13400	0.00000	0.00000
5.13600	11.36520	89.01000
5.13800	11.09460	89.01000
5.14000	11.18480	89.10000
5.14200	0.00000	0.00000
5.14400	11.27500	89.01000
5.14600	11.18480	89.01000
5.14800	11.27500	88.92000
5.15000	0.00000	0.00000
5.15200	11.18480	88.92000
5.15400	11.09460	88.83000
5.15600	11.09460	88.92000
5.15800	0.00000	0.00000
5.16000	11.18480	88.83000
5.16200	11.27500	88.83000
5.16400	0.00000	0.00000
5.16600	11.27500	88.83000
5.16800	11.27500	88.83000
5.17000	11.36520	88.83000
5.17200	0.00000	0.00000
5.17400	11.54560	88.92000
5.17600	11.63580	88.92000
5.17800	11.63580	89.01000
5.18000	0.00000	0.00000
5.18200	11.81620	89.01000
5.18400	11.90640	89.01000
5.18600	0.00000	0.00000
5.18800	11.81620	89.01000
5.19000	11.90640	88.92000
5.19200	11.90640	88.92000
5.19400	0.00000	0.00000
5.19600	11.99660	88.92000
5.19800	11.90640	88.92000
5.20000	11.99660	88.83000
5.20200	0.00000	0.00000
5.20400	11.90640	89.01000
5.20600	11.99660	89.01000
5.20800	0.00000	0.00000
5.21000	11.99660	89.01000
5.21200	11.99660	89.10000
5.21400	11.90640	89.10000
5.21600	0.00000	0.00000
5.21800	12.08680	89.01000
5.22000	12.08680	88.92000
5.22200	12.17700	88.92000
5.22400	0.00000	0.00000
5.22600	12.08680	89.01000
5.22800	12.17700	89.01000
5.23000	12.08680	89.10000
5.23200	0.00000	0.00000
5.23400	11.99660	89.01000
5.23600	11.99660	89.01000
5.23800	0.00000	0.00000
5.24000	11.90640	88.92000
5.24200	11.90640	88.92000
5.24400	11.81620	88.92000
5.24600	0.00000	0.00000
5.24800	11.72600	89.10000
5.25000	11.72600	89.19000
5.25200	11.63580	89.10000
5.25400	0.00000	0.00000
5.25600	11.81620	89.19000
5.25800	11.90640	89.10000
5.26000	0.00000	0.00000
5.26200	11.72600	89.01000
5.26400	11.63580	89.01000
5.26600	11.72600	89.01000
5.26800	0.00000	0.00000
5.27000	11.72600	89.10000
5.27200	11.63580	89.10000
5.27400	11.54560	89.19000
5.27600	0.00000	0.00000
5.27800	11.63580	89.19000
5.28000	11.54560	89.10000
5.28200	0.00000	0.00000
5.28400	11.63580	89.19000
5.28600	11.63580	89.19000
5.28800	11.72600	89.19000
5.29000	0.00000	0.00000
5.29200	11.81620	89.01000
5.29400	11.81620	89.01000
5.29600	11.81620	89.10000
5.29800	0.00000	0.00000
5.30000	11.72600	89.01000
5.30200	11.72600	89.01000
5.30400	0.00000	0.00000
5.30600	11.63580	89.10000
5.30800	11.63580	88.92000
5.31000	11.72600	89.10000
5.31200	0.00000	0.00000
5.31400	11.81620	89.10000
5.31600	11.90640	89.10000
5.31800	11.99660	89.01000
5.32000	0.00000	0.00000
5.32200	11.99660	89.01000
5.32400	11.99660	89.01000
5.32600	11.90640	89.01000
5.32800	0.00000	0.00000
5.33000	11.90640	89.01000
5.33200	11.81620	89.01000
5.33400	0.00000	0.00000
5.33600	11.90640	88.92000
5.33800	11.90640	88.83000
5.34000	11.99660	88.83000
5.34200	0.00000	0.00000
5.34400	11.99660	88.83000
5.34600	11.99660	88.83000
5.34800	11.99660	88.92000
5.35000	11.90640	88.83000
5.35200	11.90640	88.92000
5.35400	11.99660	89.01000
5.35600	0.00000	0.00000
5.35800	12.08680	89.01000
5.36000	12.08680	89.01000
5.36200	11.99660	89.01000
5.36400	0.00000	0.00000
5.36600	12.08680	88.92000
5.36800	11.99660	88.92000
5.37000	11.99660	89.01000
5.37200	0.00000	0.00000
5.37400	11.90640	88.92000
5.37600	11.81620	89.01000
5.37800	0.00000	0.00000
5.38000	11.81620	89.01000
5.38200	11.99660	88.92000
5.38400	11.99660	88.83000
5.38600	0.00000	0.00000
5.38800	12.17700	88.92000
5.39000	12.08680	88.92000
5.39200	12.08680	88.92000
5.39400	0.00000	0.00000
5.39600	11.90640	89.10000
5.39800	11.99660	89.10000
5.40000	11.99660	89.10000
5.40200	0.00000	0.00000
5.40400	12.17700	89.10000
5.40600	12.08680	89.10000
5.40800	0.00000	0.00000
5.41000	12.08680	89.10000
5.41200	12.17700	89.01000
5.41400	12.08680	89.10000
5.41600	0.00000	0.00000
5.41800	12.17700	89.10000
5.42000	12.17700	89.01000
5.42200	12.26720	88.92000
5.42400	0.00000	0.00000
5.42600	12.26720	88.92000
5.42800	12.08680	88.92000
5.43000	12.17700	89.01000
5.43200	0.00000	0.00000
5.43400	12.26720	89.01000
5.43600	12.17700	89.01000
5.43800	0.00000	0.00000
5.44000	12.35740	89.01000
5.44200	12.26720	89.01000
5.44400	12.26720	89.01000
5.44600	0.00000	0.00000
5.44800	12.08680	89.01000
5.45000	12.08680	88.83000
5.45200	11.99660	88.83000
5.45400	0.00000	0.00000
5.45600	11.90640	89.01000
5.45800	11.90640	88.92000
5.46000	0.00000	0.00000
5.46200	11.81620	88.92000
5.46400	11.72600	88.92000
5.46600	11.54560	88.92000
5.46800	0.00000	0.00000
5.47000	11.45540	88.92000
5.47200	11.45540	88.92000
5.47400	11.45540	88.92000
5.47600	0.00000	0.00000
5.47800	11.36520	89.01000
5.48000	11.36520	89.01000
5.48200	0.00000	0.00000
5.48400	11.36520	88.92000
5.48600	11.36520	88.92000
5.48800	11.36520	88.83000
5.49000	0.00000	0.00000
5.49200	11.45540	88.92000
5.49400	11.45540	88.92000
5.49600	11.63580	88.92000
5.49800	0.00000	0.00000
5.50000	11.72600	88.83000
5.50200	11.72600	88.83000
5.50400	11.81620	88.74000
5.50600	0.00000	0.00000
5.50800	11.81620	88.92000
5.51000	11.90640	88.92000
5.51200	11.81620	88.83000
5.51400	0.00000	0.00000
5.51600	11.99660	88.83000
5.51800	12.08680	88.83000
5.52000	0.00000	0.00000
5.52200	12.17700	88.83000
5.52400	12.17700	89.01000
5.52600	12.26720	89.01000
5.52800	0.00000	0.00000
5.53000	12.17700	88.92000
5.53200	12.17700	88.83000
5.53400	12.17700	88.92000
5.53600	0.00000	0.00000
5.53800	12.35740	88.92000
5.54000	12.35740	88.92000
5.54200	0.00000	0.00000
5.54400	12.26720	88.92000
5.54600	12.26720	89.01000
5.54800	12.44760	88.92000
5.55000	0.00000	0.00000
5.55200	12.44760	89.01000
5.55400	12.53780	89.01000
5.55600	12.53780	89.01000
5.55800	0.00000	0.00000
5.56000	12.53780	89.10000
5.56200	12.44760	89.19000
5.56400	0.00000	0.00000
5.56600	12.53780	89.10000
5.56800	12.35740	89.10000
5.57000	12.35740	89.10000
5.57200	0.00000	0.00000
5.57400	12.35740	88.92000
5.57600	12.17700	88.92000
5.57800	12.17700	89.01000
5.58000	0.00000	0.00000
5.58200	12.17700	89.19000
5.58400	12.17700	89.10000
5.58600	0.00000	0.00000
5.58800	12.08680	89.10000
5.59000	11.99660	89.19000
5.59200	11.99660	89.10000
5.59400	0.00000	0.00000
5.59600	12.08680	89.10000
5.59800	11.99660	89.19000
5.60000	11.90640	89.10000
5.60200	0.00000	0.00000
5.60400	11.81620	89.10000
5.60600	11.81620	89.19000
5.60800	0.00000	0.00000
5.61000	11.81620	89.10000
5.61200	11.81620	89.10000
5.61400	11.81620	89.10000
5.61600	0.00000	0.00000
5.61800	11.81620	89.10000
5.62000	11.81620	89.10000
5.62200	11.81620	89.10000
5.62400	0.00000	0.00000
5.62600	11.90640	89.19000
5.62800	11.90640	89.19000
5.63000	11.81620	89.19000
5.63200	0.00000	0.00000
5.63400	11.90640	89.10000
5.63600	11.90640	89.01000
5.63800	0.00000	0.00000
5.64000	11.90640	89.01000
5.64200	11.99660	89.01000
5.64400	11.99660	89.01000
5.64600	0.00000	0.00000
5.64800	11.81620	89.01000
5.65000	11.81620	89.01000
5.65200	11.81620	89.01000
5.65400	0.00000	0.00000
5.65600	11.72600	88.92000
5.65800	11.72600	89.01000
5.66000	0.00000	0.00000
5.66200	11.63580	88.83000
5.66400	11.72600	88.83000
5.66600	11.72600	0.00000
5.66800	0.00000	0.00000
5.67000	11.72600	88.74000
5.67200	11.81620	88.74000
5.67400	11.72600	88.74000
5.67600	11.72600	88.74000
5.67800	11.72600	88.74000
5.68000	11.54560	88.92000
5.68200	0.00000	0.00000
5.68400	11.54560	88.83000
5.68600	11.54560	88.74000
5.68800	0.00000	0.00000
5.69000	11.54560	88.74000
5.69200	11.54560	88.74000
5.69400	11.63580	88.74000
5.69600	0.00000	0.00000
5.69800	11.81620	88.92000
5.70000	11.81620	88.92000
5.70200	11.90640	88.92000
5.70400	0.00000	0.00000
5.70600	11.90640	88.92000
5.70800	11.81620	89.01000
5.71000	0.00000	0.00000
5.71200	11.72600	88.83000
5.71400	11.63580	88.92000
5.71600	11.63580	88.92000
5.71800	0.00000	0.00000
5.72000	11.81620	88.92000
5.72200	11.81620	89.01000
5.72400	11.99660	88.92000
5.72600	0.00000	0.00000
5.72800	11.90640	88.83000
5.73000	11.81620	88.83000
5.73200	0.00000	88.92000
5.73400	11.81620	88.92000
5.73600	11.72600	89.01000
5.73800	11.72600	88.92000
5.74000	0.00000	0.00000
5.74200	11.54560	88.92000
5.74400	11.63580	88.92000
5.74600	11.63580	88.92000
5.74800	0.00000	0.00000
5.75000	11.63580	89.01000
5.75200	11.63580	89.01000
5.75400	11.63580	89.01000
5.75600	0.00000	0.00000
5.75800	11.63580	89.10000
5.76000	11.72600	89.19000
5.76200	0.00000	0.00000
5.76400	11.72600	89.19000
5.76600	11.72600	89.19000
5.76800	11.63580	89.10000
5.77000	0.00000	0.00000
5.77200	11.72600	89.10000
5.77400	11.63580	89.19000
5.77600	0.00000	0.00000
5.77800	11.72600	89.10000
5.78000	11.72600	89.10000
5.78200	11.54560	89.10000
5.78400	0.00000	0.00000
5.78600	11.54560	89.10000
5.78800	11.54560	89.10000
5.79000	11.63580	89.10000
5.79200	0.00000	0.00000
5.79400	11.63580	89.01000
5.79600	11.72600	88.92000
5.79800	0.00000	0.00000
5.80000	11.81620	89.10000
5.80200	11.81620	89.10000
5.80400	11.90640	89.01000
5.80600	0.00000	0.00000
5.80800	11.81620	88.92000
5.81000	11.81620	88.74000
5.81200	11.81620	88.83000
5.81400	0.00000	0.00000
5.81600	11.90640	88.83000
5.81800	11.90640	88.83000
5.82000	11.99660	88.92000
5.82200	0.00000	0.00000
5.82400	12.17700	88.92000
5.82600	12.17700	88.83000
5.82800	0.00000	0.00000
5.83000	12.17700	88.83000
5.83200	12.17700	88.92000
5.83400	12.17700	88.92000
5.83600	0.00000	0.00000
5.83800	12.26720	88.83000
5.84000	12.26720	88.65000
5.84200	12.17700	88.65000
5.84400	0.00000	0.00000
5.84600	12.17700	88.83000
5.84800	12.08680	88.74000
5.85000	0.00000	0.00000
5.85200	12.08680	88.92000
5.85400	12.17700	88.83000
5.85600	12.08680	88.83000
5.85800	0.00000	0.00000
5.86000	11.99660	88.83000
5.86200	11.81620	88.83000
5.86400	11.90640	88.83000
5.86600	0.00000	0.00000
5.86800	11.81620	88.83000
5.87000	11.81620	88.83000
5.87200	11.72600	88.83000
5.87400	0.00000	0.00000
5.87600	11.90640	88.92000
5.87800	11.90640	88.92000
5.88000	0.00000	0.00000
5.88200	11.81620	89.01000
5.88400	12.08680	88.92000
5.88600	11.99660	89.01000
5.88800	0.00000	0.00000
5.89000	11.81620	89.10000
5.89200	11.90640	89.01000
5.89400	11.90640	89.01000
5.89600	0.00000	0.00000
5.89800	12.08680	89.10000
5.90000	11.81620	89.19000
5.90200	11.72600	89.10000
5.90400	0.00000	0.00000
5.90600	11.81620	89.19000
5.90800	11.72600	89.10000
5.91000	0.00000	0.00000
5.91200	11.72600	89.10000
5.91400	11.72600	89.10000
5.91600	11.72600	89.10000
5.91800	0.00000	0.00000
5.92000	11.36520	89.19000
5.92200	11.36520	89.19000
5.92400	11.36520	89.19000
5.92600	0.00000	0.00000
5.92800	11.18480	89.10000
5.93000	11.09460	89.10000
5.93200	0.00000	0.00000
5.93400	11.00440	89.19000
5.93600	11.09460	89.19000
5.93800	11.09460	89.28000
5.94000	0.00000	0.00000
5.94200	11.00440	89.28000
5.94400	11.09460	89.28000
5.94600	11.09460	89.19000
5.94800	0.00000	0.00000
5.95000	11.18480	89.10000
5.95200	11.27500	89.10000
5.95400	0.00000	0.00000
5.95600	11.27500	89.10000
5.95800	11.18480	89.01000
5.96000	11.36520	89.01000
5.96200	0.00000	0.00000
5.96400	11.54560	89.10000
5.96600	11.54560	89.10000
5.96800	11.54560	89.19000
5.97000	0.00000	0.00000
5.97200	11.45540	89.10000
5.97400	11.45540	89.01000
5.97600	0.00000	0.00000
5.97800	11.63580	89.10000
5.98000	11.72600	89.01000
5.98200	11.72600	89.10000
5.98400	0.00000	0.00000
5.98600	11.63580	89.10000
5.98800	11.63580	89.01000
5.99000	11.63580	89.01000
5.99200	0.00000	0.00000
5.99400	11.81620	89.10000
5.99600	11.72600	88.92000
5.99800	0.00000	0.00000
6.00000	11.72600	88.92000
6.00200	11.81620	88.92000
6.00400	11.81620	88.92000
6.00600	0.00000	0.00000
6.00800	11.99660	88.92000
6.01000	12.17700	88.74000
6.01200	12.17700	0.00000
6.01400	0.00000	0.00000
6.01600	12.35740	88.74000
6.01800	12.44760	88.65000
6.02000	12.35740	88.65000
6.02200	0.00000	0.00000
6.02400	12.62800	88.65000
6.02600	12.80840	88.65000
6.02800	0.00000	0.00000
6.03000	12.89860	88.65000
6.03200	12.89860	88.65000
6.03400	12.98880	88.74000
6.03600	0.00000	0.00000
6.03800	12.98880	88.74000
6.04000	13.16920	88.92000
6.04200	0.00000	0.00000
6.04400	0.00000	0.00000
6.04600	13.07900	88.65000
6.04800	12.98880	88.65000
6.05000	12.98880	88.65000
6.05200	0.00000	0.00000
6.05400	12.80840	88.74000
6.05600	12.71820	88.74000
6.05800	0.00000	0.00000
6.06000	12.62800	88.74000
6.06200	12.53780	88.83000
6.06400	12.35740	0.00000
6.06600	0.00000	0.00000
6.06800	12.35740	88.74000
6.07000	12.26720	88.74000
6.07200	12.17700	88.83000
6.07400	0.00000	0.00000
6.07600	12.17700	88.83000
6.07800	12.26720	88.83000
6.08000	12.35740	88.83000
6.08200	0.00000	0.00000
6.08400	12.35740	88.92000
6.08600	12.26720	88.83000
6.08800	12.26720	88.83000
6.09000	12.26720	88.92000
6.09200	12.26720	89.01000
6.09400	0.00000	0.00000
6.09600	0.00000	0.00000
6.09800	12.26720	89.10000
6.10000	12.26720	89.10000
6.10200	12.26720	89.01000
6.10400	0.00000	0.00000
6.10600	12.26720	89.19000
6.10800	12.35740	89.19000
6.11000	12.35740	89.19000
6.11200	0.00000	0.00000
6.11400	12.17700	89.19000
6.11600	12.08680	89.19000
6.11800	11.81620	89.19000
6.12000	0.00000	0.00000
6.12200	11.90640	89.28000
6.12400	11.90640	89.28000
6.12600	0.00000	0.00000
6.12800	11.81620	89.19000
6.13000	11.72600	89.10000
6.13200	11.72600	89.10000
6.13400	0.00000	0.00000
6.13600	11.72600	89.10000
6.13800	11.63580	89.10000
6.14000	11.54560	89.10000
6.14200	0.00000	0.00000
6.14400	11.36520	89.19000
6.14600	11.27500	89.19000
6.14800	0.00000	0.00000
6.15000	11.09460	89.10000
6.15200	11.09460	89.10000
6.15400	11.09460	89.19000
6.15600	0.00000	0.00000
6.15800	11.27500	89.19000
6.16000	11.27500	89.19000
6.16200	11.18480	89.10000
6.16400	0.00000	0.00000
6.16600	11.45540	89.19000
6.16800	11.54560	89.19000
6.17000	0.00000	0.00000
6.17200	11.72600	89.10000
6.17400	11.81620	89.01000
6.17600	11.90640	89.01000
6.17800	0.00000	0.00000
6.18000	11.99660	89.01000
6.18200	11.99660	88.92000
6.18400	11.99660	88.83000
6.18600	0.00000	0.00000
6.18800	12.26720	88.92000
6.19000	12.26720	88.92000
6.19200	12.26720	88.92000
6.19400	12.35740	89.01000
6.19600	12.26720	88.83000
6.19800	12.35740	88.74000
6.20000	0.00000	0.00000
6.20200	12.26720	88.74000
6.20400	12.26720	88.74000
6.20600	12.26720	88.74000
6.20800	0.00000	0.00000
6.21000	12.08680	88.83000
6.21200	0.00000	0.00000
6.21400	0.00000	0.00000
6.21600	11.99660	88.74000
6.21800	11.99660	88.83000
6.22000	0.00000	0.00000
6.22200	0.00000	0.00000
6.22400	11.99660	88.74000
6.22600	12.08680	88.83000
6.22800	12.08680	88.83000
6.23000	0.00000	0.00000
6.23200	12.08680	88.92000
6.23400	12.08680	88.83000
6.23600	0.00000	0.00000
6.23800	11.90640	88.74000
6.24000	11.81620	88.74000
6.24200	0.00000	0.00000
6.24400	0.00000	0.00000
6.24600	11.99660	88.92000
6.24800	11.99660	88.92000
6.25000	11.99660	88.92000
6.25200	0.00000	0.00000
6.25400	11.99660	88.92000
6.25600	0.00000	0.00000
6.25800	0.00000	0.00000
6.26000	11.99660	89.19000
6.26200	12.08680	89.10000
6.26400	12.08680	0.00000
6.26600	0.00000	0.00000
6.26800	11.99660	89.01000
6.27000	11.99660	89.01000
6.27200	11.81620	89.01000
6.27400	0.00000	0.00000
6.27600	11.81620	88.92000
6.27800	0.00000	0.00000
6.28000	0.00000	0.00000
6.28200	11.63580	89.01000
6.28400	11.54560	89.01000
6.28600	0.00000	0.00000
6.28800	0.00000	0.00000
6.29000	11.54560	89.10000
6.29200	11.54560	89.10000
6.29400	11.63580	89.10000
6.29600	0.00000	0.00000
6.29800	11.72600	89.10000
6.30000	11.72600	89.10000
6.30200	11.72600	89.19000
6.30400	0.00000	0.00000
6.30600	11.90640	89.10000
6.30800	0.00000	0.00000
6.31000	0.00000	0.00000
6.31200	12.08680	89.01000
6.31400	11.99660	88.92000
6.31600	11.99660	89.01000
6.31800	0.00000	0.00000
6.32000	12.08680	89.01000
6.32200	12.08680	89.01000
6.32400	12.17700	89.01000
6.32600	12.17700	89.10000
6.32800	12.17700	89.10000
6.33000	0.00000	0.00000
6.33200	0.00000	0.00000
6.33400	12.26720	89.10000
6.33600	12.26720	89.10000
6.33800	12.08680	0.00000
6.34000	0.00000	0.00000
6.34200	12.08680	89.01000
6.34400	12.08680	88.92000
6.34600	12.08680	88.83000
6.34800	0.00000	0.00000
6.35000	11.99660	88.83000
6.35200	0.00000	0.00000
6.35400	0.00000	0.00000
6.35600	11.90640	88.83000
6.35800	11.81620	88.83000
6.36000	0.00000	0.00000
6.36200	0.00000	0.00000
6.36400	11.72600	88.83000
6.36600	11.63580	88.83000
6.36800	11.72600	0.00000
6.37000	0.00000	0.00000
6.37200	11.72600	88.92000
6.37400	11.72600	88.92000
6.37600	11.72600	88.83000
6.37800	0.00000	0.00000
6.38000	11.63580	88.83000
6.38200	11.63580	88.83000
6.38400	11.72600	88.92000
6.38600	0.00000	0.00000
6.38800	11.63580	88.83000
6.39000	11.54560	88.83000
6.39200	0.00000	0.00000
6.39400	11.54560	88.92000
6.39600	11.54560	88.92000
6.39800	0.00000	0.00000
6.40000	0.00000	0.00000
6.40200	11.54560	89.01000
6.40400	11.54560	88.92000
6.40600	11.54560	89.01000
6.40800	0.00000	0.00000
6.41000	11.36520	88.92000
6.41200	11.36520	88.83000
6.41400	0.00000	0.00000
6.41600	11.36520	88.92000
6.41800	11.18480	88.92000
6.42000	11.09460	89.01000
6.42200	0.00000	0.00000
6.42400	11.18480	89.10000
6.42600	11.18480	89.01000
6.42800	0.00000	0.00000
6.43000	0.00000	0.00000
6.43200	11.27500	89.10000
6.43400	11.36520	89.10000
6.43600	0.00000	0.00000
6.43800	11.27500	89.01000
6.44000	11.36520	89.10000
6.44200	11.27500	89.10000
6.44400	0.00000	0.00000
6.44600	11.45540	89.19000
6.44800	11.45540	89.19000
6.45000	11.54560	89.19000
6.45200	0.00000	0.00000
6.45400	11.54560	89.19000
6.45600	0.00000	0.00000
6.45800	0.00000	0.00000
6.46000	11.72600	89.01000
6.46200	11.90640	89.01000
6.46400	0.00000	0.00000
6.46600	0.00000	0.00000
6.46800	11.90640	89.19000
6.47000	11.99660	89.10000
6.47200	11.99660	89.10000
6.47400	0.00000	0.00000
6.47600	11.99660	89.19000
6.47800	0.00000	0.00000
6.48000	0.00000	0.00000
6.48200	11.72600	89.10000
6.48400	11.81620	89.10000
6.48600	0.00000	0.00000
6.48800	0.00000	0.00000
6.49000	11.90640	89.01000
6.49200	11.81620	89.10000
6.49400	11.81620	89.01000
6.49600	0.00000	0.00000
6.49800	11.90640	88.92000
6.50000	0.00000	0.00000
6.50200	0.00000	0.00000
6.50400	12.17700	89.01000
6.50600	12.17700	89.01000
6.50800	12.35740	88.92000
6.51000	0.00000	88.92000
6.51200	12.44760	88.92000
6.51400	12.35740	89.01000
6.51600	12.35740	89.10000
6.51800	0.00000	0.00000
6.52000	12.26720	89.01000
6.52200	12.35740	89.10000
6.52400	0.00000	0.00000
6.52600	12.26720	89.01000
6.52800	12.17700	88.92000
6.53000	12.17700	89.01000
6.53200	0.00000	0.00000
6.53400	12.08680	89.01000
6.53600	11.99660	89.10000
6.53800	11.99660	89.10000
6.54000	0.00000	0.00000
6.54200	11.90640	88.83000
6.54400	11.90640	88.92000
6.54600	11.90640	89.01000
6.54800	0.00000	0.00000
6.55000	11.72600	89.01000
6.55200	11.72600	88.92000
6.55400	0.00000	0.00000
6.55600	11.63580	89.01000
6.55800	11.72600	89.01000
6.56000	11.81620	88.92000
6.56200	0.00000	0.00000
6.56400	11.81620	88.92000
6.56600	11.81620	88.92000
6.56800	0.00000	0.00000
6.57000	11.81620	88.92000
6.57200	11.90640	89.10000
6.57400	11.99660	89.01000
6.57600	0.00000	0.00000
6.57800	11.99660	89.01000
6.58000	12.17700	88.92000
6.58200	12.17700	88.83000
6.58400	0.00000	0.00000
6.58600	12.08680	88.74000
6.58800	12.17700	88.74000
6.59000	0.00000	0.00000
6.59200	12.08680	88.83000
6.59400	12.08680	89.01000
6.59600	12.17700	88.92000
6.59800	0.00000	0.00000
6.60000	12.17700	88.83000
6.60200	12.17700	88.83000
6.60400	12.26720	88.92000
6.60600	0.00000	0.00000
6.60800	12.26720	88.83000
6.61000	0.00000	0.00000
6.61200	0.00000	0.00000
6.61400	12.26720	88.92000
6.61600	12.35740	88.92000
6.61800	12.26720	88.83000
6.62000	0.00000	0.00000
6.62200	12.26720	89.01000
6.62400	12.35740	88.83000
6.62600	12.35740	88.74000
6.62800	0.00000	0.00000
6.63000	12.26720	88.92000
6.63200	12.35740	88.83000
6.63400	12.17700	88.92000
6.63600	0.00000	0.00000
6.63800	11.99660	88.83000
6.64000	11.90640	88.92000
6.64200	0.00000	0.00000
6.64400	11.90640	89.10000
6.64600	11.81620	89.19000
6.64800	11.72600	89.10000
6.65000	0.00000	0.00000
6.65200	11.72600	89.19000
6.65400	11.81620	89.10000
6.65600	11.81620	89.19000
6.65800	0.00000	0.00000
6.66000	11.90640	89.28000
6.66200	11.81620	89.19000
6.66400	0.00000	0.00000
6.66600	11.81620	89.28000
6.66800	11.90640	89.19000
6.67000	11.90640	89.28000
6.67200	0.00000	0.00000
6.67400	11.99660	89.28000
6.67600	11.90640	89.28000
6.67800	0.00000	0.00000
6.68000	12.08680	89.28000
6.68200	12.17700	89.28000
6.68400	12.08680	89.19000
6.68600	0.00000	0.00000
6.68800	12.17700	89.10000
6.69000	12.26720	89.01000
6.69200	0.00000	0.00000
6.69400	12.35740	89.19000
6.69600	12.26720	89.10000
6.69800	12.26720	89.01000
6.70000	0.00000	0.00000
6.70200	12.17700	89.01000
6.70400	12.08680	89.01000
6.70600	12.08680	88.92000
6.70800	0.00000	0.00000
6.71000	11.81620	88.83000
6.71200	0.00000	0.00000
6.71400	0.00000	0.00000
6.71600	11.72600	88.83000
6.71800	11.81620	88.92000
6.72000	11.72600	0.00000
6.72200	0.00000	0.00000
6.72400	11.63580	88.92000
6.72600	11.63580	88.83000
6.72800	0.00000	0.00000
6.73000	11.54560	88.92000
6.73200	11.45540	88.92000
6.73400	0.00000	0.00000
6.73600	0.00000	0.00000
6.73800	11.36520	89.01000
6.74000	11.45540	89.10000
6.74200	11.45540	0.00000
6.74400	0.00000	0.00000
6.74600	11.36520	89.01000
6.74800	11.45540	89.01000
6.75000	0.00000	0.00000
6.75200	11.27500	88.92000
6.75400	11.18480	88.92000
6.75600	11.09460	88.92000
6.75800	0.00000	0.00000
6.76000	11.00440	88.92000
6.76200	11.00440	88.92000
6.76400	11.00440	88.92000
6.76600	0.00000	0.00000
6.76800	11.00440	89.19000
6.77000	11.09460	89.10000
6.77200	11.09460	89.10000
6.77400	0.00000	0.00000
6.77600	11.09460	89.10000
6.77800	0.00000	0.00000
6.78000	0.00000	0.00000
6.78200	11.09460	89.19000
6.78400	11.18480	88.92000
6.78600	0.00000	0.00000
6.78800	0.00000	0.00000
6.79000	11.18480	88.92000
6.79200	11.18480	89.10000
6.79400	11.18480	89.10000
6.79600	0.00000	0.00000
6.79800	11.09460	89.01000
6.80000	11.09460	89.01000
6.80200	11.00440	89.01000
6.80400	0.00000	0.00000
6.80600	11.27500	89.01000
6.80800	11.36520	88.92000
6.81000	0.00000	0.00000
6.81200	11.27500	89.01000
6.81400	11.45540	88.92000
6.81600	0.00000	0.00000
6.81800	0.00000	0.00000
6.82000	11.54560	89.01000
6.82200	11.63580	89.01000
6.82400	11.72600	89.01000
6.82600	0.00000	0.00000
6.82800	11.99660	88.92000
6.83000	12.17700	0.00000
6.83200	0.00000	0.00000
6.83400	12.17700	89.10000
6.83600	12.26720	89.10000
6.83800	12.44760	89.10000
6.84000	0.00000	0.00000
6.84200	12.44760	89.10000
6.84400	12.44760	89.10000
6.84600	12.44760	89.01000
6.84800	0.00000	0.00000
6.85000	12.53780	89.01000
6.85200	12.53780	88.92000
6.85400	12.53780	88.92000
6.85600	0.00000	0.00000
6.85800	12.71820	88.92000
6.86000	0.00000	0.00000
6.86200	0.00000	0.00000
6.86400	12.80840	89.01000
6.86600	12.71820	89.01000
6.86800	12.71820	88.92000
6.87000	0.00000	0.00000
6.87200	12.80840	88.83000
6.87400	12.89860	88.83000
6.87600	12.98880	88.83000
6.87800	0.00000	0.00000
6.88000	12.89860	88.83000
6.88200	12.80840	88.92000
6.88400	12.89860	88.83000
6.88600	0.00000	0.00000
6.88800	12.80840	88.74000
6.89000	12.80840	88.74000
6.89200	12.80840	88.74000
6.89400	0.00000	0.00000
6.89600	12.71820	88.65000
6.89800	12.71820	88.65000
6.90000	0.00000	0.00000
6.90200	12.62800	88.83000
6.90400	12.44760	88.65000
6.90600	12.44760	88.74000
6.90800	0.00000	0.00000
6.91000	12.53780	88.83000
6.91200	12.53780	88.83000
6.91400	12.53780	88.74000
6.91600	0.00000	0.00000
6.91800	12.53780	88.83000
6.92000	12.44760	88.83000
6.92200	0.00000	0.00000
6.92400	12.26720	88.92000
6.92600	12.26720	88.83000
6.92800	12.26720	88.83000
6.93000	0.00000	0.00000
6.93200	12.08680	88.83000
6.93400	12.08680	88.83000
6.93600	11.99660	88.74000
6.93800	0.00000	0.00000
6.94000	11.90640	88.74000
6.94200	11.81620	88.83000
6.94400	0.00000	0.00000
6.94600	11.54560	88.83000
6.94800	11.45540	88.83000
6.95000	11.45540	88.83000
6.95200	0.00000	0.00000
6.95400	11.27500	88.83000
6.95600	11.27500	88.83000
6.95800	11.27500	89.01000
6.96000	0.00000	0.00000
6.96200	11.18480	89.01000
6.96400	11.18480	89.10000
6.96600	0.00000	0.00000
6.96800	11.27500	89.01000
6.97000	11.27500	88.92000
6.97200	11.18480	88.92000
6.97400	0.00000	0.00000
6.97600	11.27500	89.10000
6.97800	11.27500	89.10000
6.98000	11.36520	89.01000
6.98200	0.00000	0.00000
6.98400	11.45540	89.10000
6.98600	11.27500	89.01000
6.98800	11.27500	89.10000
6.99000	0.00000	0.00000
6.99200	11.45540	89.19000
6.99400	11.45540	89.10000
6.99600	0.00000	0.00000
6.99800	11.45540	89.19000
7.00000	11.36520	89.10000
7.00200	11.36520	89.10000
7.00400	0.00000	0.00000
7.00600	11.27500	89.19000
7.00800	11.27500	89.19000
7.01000	11.45540	89.10000
7.01200	0.00000	0.00000
7.01400	11.54560	89.19000
7.01600	11.63580	89.10000
7.01800	0.00000	0.00000
7.02000	11.63580	89.19000
7.02200	11.72600	89.10000
7.02400	11.90640	89.10000
7.02600	0.00000	0.00000
7.02800	12.08680	88.92000
7.03000	12.08680	89.01000
7.03200	11.99660	88.92000
7.03400	0.00000	0.00000
7.03600	11.90640	89.01000
7.03800	12.08680	89.10000
7.04000	0.00000	0.00000
7.04200	12.08680	89.01000
7.04400	11.99660	88.92000
7.04600	11.99660	89.01000
7.04800	0.00000	0.00000
7.05000	12.08680	89.01000
7.05200	12.17700	89.01000
7.05400	12.26720	89.01000
7.05600	0.00000	0.00000
7.05800	12.17700	89.01000
7.06000	12.17700	89.01000
7.06200	0.00000	0.00000
7.06400	12.08680	88.83000
7.06600	12.17700	88.92000
7.06800	12.17700	89.01000
7.07000	0.00000	0.00000
7.07200	12.17700	88.92000
7.07400	12.08680	88.92000
7.07600	11.99660	88.92000
7.07800	0.00000	0.00000
7.08000	11.99660	88.92000
7.08200	11.99660	88.83000
7.08400	12.08680	88.83000
7.08600	0.00000	0.00000
7.08800	12.08680	88.83000
7.09000	12.08680	89.01000
7.09200	0.00000	0.00000
7.09400	12.17700	89.01000
7.09600	12.17700	89.01000
7.09800	12.17700	89.01000
7.10000	0.00000	0.00000
7.10200	12.17700	89.01000
7.10400	12.26720	89.01000
7.10600	12.26720	88.92000
7.10800	0.00000	0.00000
7.11000	12.17700	89.01000
7.11200	12.17700	89.01000
7.11400	0.00000	0.00000
7.11600	11.99660	89.10000
7.11800	11.99660	89.10000
7.12000	11.99660	89.01000
7.12200	0.00000	0.00000
7.12400	11.90640	89.10000
7.12600	11.90640	89.01000
7.12800	11.81620	89.10000
7.13000	0.00000	0.00000
7.13200	11.81620	89.01000
7.13400	11.81620	89.10000
7.13600	0.00000	0.00000
7.13800	11.81620	89.10000
7.14000	11.72600	89.10000
7.14200	11.81620	89.01000
7.14400	0.00000	0.00000
7.14600	11.63580	88.83000
7.14800	11.54560	88.92000
7.15000	11.54560	89.01000
7.15200	0.00000	0.00000
7.15400	11.54560	89.10000
7.15600	11.72600	89.10000
7.15800	11.72600	89.10000
7.16000	0.00000	0.00000
7.16200	11.90640	89.01000
7.16400	11.81620	89.01000
7.16600	0.00000	0.00000
7.16800	11.81620	89.01000
7.17000	11.90640	88.92000
7.17200	11.99660	89.01000
7.17400	0.00000	0.00000
7.17600	11.90640	88.83000
7.17800	11.99660	88.83000
7.18000	11.99660	88.83000
7.18200	0.00000	0.00000
7.18400	11.99660	88.83000
7.18600	11.90640	88.74000
7.18800	11.99660	88.74000
7.19000	0.00000	0.00000
7.19200	11.90640	88.83000
7.19400	11.99660	88.92000
7.19600	0.00000	0.00000
7.19800	11.99660	88.92000
7.20000	11.99660	88.83000
7.20200	12.08680	88.83000
7.20400	0.00000	0.00000
7.20600	11.99660	88.74000
7.20800	11.99660	88.74000
7.21000	11.99660	88.74000
7.21200	0.00000	0.00000
7.21400	11.90640	88.74000
7.21600	11.99660	88.83000
7.21800	11.90640	88.92000
7.22000	0.00000	0.00000
7.22200	12.08680	88.92000
7.22400	11.99660	88.92000
7.22600	0.00000	0.00000
7.22800	11.99660	89.01000
7.23000	12.08680	89.01000
7.23200	12.08680	88.92000
7.23400	0.00000	0.00000
7.23600	11.99660	89.01000
7.23800	12.08680	88.92000
7.24000	12.08680	89.01000
7.24200	0.00000	0.00000
7.24400	11.99660	89.01000
7.24600	11.81620	89.10000
7.24800	0.00000	0.00000
7.25000	11.81620	89.01000
7.25200	11.81620	88.92000
7.25400	11.72600	89.01000
7.25600	0.00000	0.00000
7.25800	11.72600	88.92000
7.26000	11.81620	89.01000
7.26200	11.72600	89.01000
7.26400	0.00000	0.00000
7.26600	11.54560	89.10000
7.26800	11.63580	89.28000
7.27000	0.00000	0.00000
7.27200	11.54560	89.10000
7.27400	11.63580	89.10000
7.27600	11.54560	89.10000
7.27800	0.00000	0.00000
7.28000	11.63580	89.01000
7.28200	11.72600	89.10000
7.28400	11.81620	89.19000
7.28600	0.00000	0.00000
7.28800	11.81620	89.01000
7.29000	11.72600	89.01000
7.29200	0.00000	0.00000
7.29400	11.81620	89.01000
7.29600	11.72600	89.10000
7.29800	11.63580	89.10000
7.30000	0.00000	0.00000
7.30200	11.63580	89.01000
7.30400	11.63580	89.10000
7.30600	11.63580	89.10000
7.30800	0.00000	0.00000
7.31000	11.54560	89.19000
7.31200	11.54560	89.19000
7.31400	0.00000	0.00000
7.31600	11.54560	89.10000
7.31800	11.63580	89.10000
7.32000	11.54560	89.10000
7.32200	0.00000	0.00000
7.32400	11.54560	89.10000
7.32600	11.54560	89.19000
7.32800	11.63580	89.19000
7.33000	0.00000	0.00000
7.33200	11.54560	89.19000
7.33400	11.45540	89.10000
7.33600	11.63580	89.19000
7.33800	0.00000	0.00000
7.34000	11.81620	89.10000
7.34200	11.90640	89.10000
7.34400	0.00000	0.00000
7.34600	12.08680	89.01000
7.34800	12.08680	89.10000
7.35000	11.99660	89.10000
7.35200	0.00000	0.00000
7.35400	11.99660	88.92000
7.35600	12.08680	89.01000
7.35800	12.08680	89.10000
7.36000	0.00000	0.00000
7.36200	12.17700	89.01000
7.36400	12.26720	89.01000
7.36600	12.35740	89.01000
7.36800	0.00000	0.00000
7.37000	12.26720	89.01000
7.37200	12.35740	89.01000
7.37400	0.00000	0.00000
7.37600	12.44760	88.92000
7.37800	12.53780	88.83000
7.38000	12.53780	88.83000
7.38200	0.00000	0.00000
7.38400	12.62800	88.92000
7.38600	12.53780	88.83000
7.38800	12.53780	88.83000
7.39000	0.00000	0.00000
7.39200	12.35740	88.74000
7.39400	12.26720	88.74000
7.39600	0.00000	0.00000
7.39800	12.26720	88.74000
7.40000	12.26720	88.83000
7.40200	12.35740	88.83000
7.40400	0.00000	0.00000
7.40600	12.35740	88.65000
7.40800	12.35740	88.56000
7.41000	12.26720	88.65000
7.41200	0.00000	0.00000
7.41400	12.26720	88.74000
7.41600	12.26720	88.74000
7.41800	12.08680	88.83000
7.42000	0.00000	0.00000
7.42200	11.99660	88.83000
7.42400	11.90640	88.92000
7.42600	11.90640	88.92000
7.42800	0.00000	0.00000
7.43000	12.08680	88.92000
7.43200	12.17700	88.92000
7.43400	0.00000	0.00000
7.43600	11.99660	88.92000
7.43800	11.99660	89.01000
7.44000	11.90640	89.01000
7.44200	0.00000	0.00000
7.44400	11.90640	88.92000
7.44600	11.72600	88.92000
7.44800	0.00000	0.00000
7.45000	11.81620	88.92000
7.45200	11.72600	88.92000
7.45400	11.63580	89.01000
7.45600	0.00000	0.00000
7.45800	11.54560	89.19000
7.46000	11.54560	89.10000
7.46200	11.54560	89.01000
7.46400	0.00000	0.00000
7.46600	11.54560	89.01000
7.46800	11.45540	88.92000
7.47000	11.54560	88.92000
7.47200	0.00000	0.00000
7.47400	11.45540	89.10000
7.47600	11.45540	89.01000
7.47800	0.00000	0.00000
7.48000	11.45540	89.19000
7.48200	11.54560	89.19000
7.48400	11.54560	89.19000
7.48600	0.00000	0.00000
7.48800	11.54560	89.10000
7.49000	11.45540	89.19000
7.49200	0.00000	0.00000
7.49400	11.36520	89.10000
7.49600	11.36520	89.01000
7.49800	11.36520	89.10000
7.50000	0.00000	0.00000
7.50200	11.36520	89.01000
7.50400	11.36520	89.19000
7.50600	11.36520	89.28000
7.50800	0.00000	0.00000
7.51000	11.54560	89.10000
7.51200	11.54560	89.01000
7.51400	0.00000	0.00000
7.51600	11.63580	89.01000
7.51800	11.63580	89.01000
7.52000	11.54560	89.01000
7.52200	0.00000	0.00000
7.52400	11.54560	89.01000
7.52600	11.54560	89.01000
7.52800	11.63580	89.01000
7.53000	0.00000	0.00000
7.53200	11.54560	88.92000
7.53400	11.63580	89.01000
7.53600	0.00000	0.00000
7.53800	11.72600	88.92000
7.54000	11.90640	89.01000
7.54200	11.99660	89.01000
7.54400	0.00000	0.00000
7.54600	12.08680	89.01000
7.54800	12.17700	89.01000
7.55000	12.08680	89.01000
7.55200	0.00000	0.00000
7.55400	12.08680	89.01000
7.55600	12.08680	89.01000
7.55800	12.08680	89.01000
7.56000	0.00000	0.00000
7.56200	11.99660	89.01000
7.56400	12.08680	89.01000
7.56600	12.08680	88.92000
7.56800	0.00000	0.00000
7.57000	11.90640	88.92000
7.57200	11.81620	88.92000
7.57400	0.00000	0.00000
7.57600	11.90640	89.01000
7.57800	11.81620	89.01000
7.58000	11.81620	88.92000
7.58200	0.00000	0.00000
7.58400	11.90640	88.74000
7.58600	11.90640	88.74000
7.58800	11.90640	88.92000
7.59000	0.00000	0.00000
7.59200	11.90640	88.92000
7.59400	11.81620	88.92000
7.59600	0.00000	0.00000
7.59800	11.72600	89.01000
7.60000	11.72600	89.01000
7.60200	11.81620	89.01000
7.60400	0.00000	0.00000
7.60600	11.90640	89.01000
7.60800	11.99660	89.10000
7.61000	12.17700	89.10000
7.61200	0.00000	0.00000
7.61400	12.17700	89.10000
7.61600	12.26720	89.19000
7.61800	0.00000	0.00000
7.62000	12.26720	89.19000
7.62200	12.26720	89.10000
7.62400	12.26720	89.10000
7.62600	0.00000	0.00000
7.62800	12.35740	89.10000
7.63000	12.35740	89.10000
7.63200	12.35740	89.01000
7.63400	0.00000	0.00000
7.63600	12.53780	89.01000
7.63800	12.53780	89.10000
7.64000	12.62800	89.01000
7.64200	0.00000	0.00000
7.64400	12.62800	89.10000
7.64600	12.62800	89.10000
7.64800	0.00000	0.00000
7.65000	12.53780	89.10000
7.65200	12.35740	89.10000
7.65400	12.35740	89.10000
7.65600	0.00000	0.00000
7.65800	12.08680	89.19000
7.66000	12.08680	89.19000
7.66200	12.17700	89.19000
7.66400	0.00000	0.00000
7.66600	12.17700	89.19000
7.66800	12.08680	89.01000
7.67000	12.08680	89.01000
7.67200	0.00000	0.00000
7.67400	11.99660	88.83000
7.67600	12.08680	88.92000
7.67800	0.00000	0.00000
7.68000	12.17700	88.92000
7.68200	12.08680	88.92000
7.68400	0.00000	0.00000
7.68600	12.08680	89.01000
7.68800	11.99660	89.01000
7.69000	11.90640	89.01000
7.69200	0.00000	0.00000
7.69400	11.90640	88.92000
7.69600	11.99660	88.92000
7.69800	0.00000	0.00000
7.70000	11.99660	89.01000
7.70200	11.90640	88.92000
7.70400	11.81620	88.92000
7.70600	0.00000	0.00000
7.70800	11.72600	88.92000
7.71000	11.72600	89.01000
7.71200	11.72600	89.01000
7.71400	0.00000	0.00000
7.71600	11.72600	88.92000
7.71800	11.63580	88.92000
7.72000	0.00000	0.00000
7.72200	11.90640	88.92000
7.72400	11.72600	89.01000
7.72600	11.72600	88.83000
7.72800	0.00000	0.00000
7.73000	11.81620	88.92000
7.73200	11.72600	88.92000
7.73400	11.63580	88.83000
7.73600	0.00000	0.00000
7.73800	11.54560	88.74000
7.74000	11.63580	88.74000
7.74200	11.54560	88.74000
7.74400	0.00000	0.00000
7.74600	11.72600	88.92000
7.74800	11.81620	88.74000
7.75000	0.00000	0.00000
7.75200	11.63580	88.74000
7.75400	11.63580	88.74000
7.75600	11.63580	88.74000
7.75800	0.00000	0.00000
7.76000	11.63580	88.74000
7.76200	11.63580	88.83000
7.76400	11.54560	88.74000
7.76600	0.00000	0.00000
7.76800	11.72600	88.74000
7.77000	11.72600	88.74000
7.77200	11.72600	88.74000
7.77400	0.00000	0.00000
7.77600	11.63580	88.92000
7.77800	11.72600	88.92000
7.78000	0.00000	0.00000
7.78200	11.81620	88.83000
7.78400	11.81620	88.74000
7.78600	11.81620	88.83000
7.78800	0.00000	0.00000
7.79000	11.99660	88.74000
7.79200	11.90640	88.74000
7.79400	11.90640	88.83000
7.79600	0.00000	0.00000
7.79800	12.08680	89.01000
7.80000	11.99660	88.83000
7.80200	0.00000	0.00000
7.80400	11.99660	89.01000
7.80600	11.90640	89.01000
7.80800	11.90640	88.92000
7.81000	0.00000	0.00000
7.81200	11.81620	89.10000
7.81400	11.81620	89.19000
7.81600	11.81620	89.01000
7.81800	0.00000	0.00000
7.82000	11.63580	89.01000
7.82200	11.63580	89.10000
7.82400	0.00000	0.00000
7.82600	11.36520	89.10000
7.82800	11.36520	89.01000
7.83000	11.45540	89.01000
7.83200	0.00000	0.00000
7.83400	11.45540	89.19000
7.83600	11.63580	89.10000
7.83800	11.63580	89.19000
7.84000	0.00000	0.00000
7.84200	11.45540	89.10000
7.84400	11.54560	89.19000
7.84600	0.00000	0.00000
7.84800	11.63580	89.10000
7.85000	11.63580	89.01000
7.85200	11.72600	89.10000
7.85400	0.00000	0.00000
7.85600	11.81620	88.92000
7.85800	11.90640	89.01000
7.86000	11.90640	89.01000
7.86200	0.00000	0.00000
7.86400	11.90640	89.10000
7.86600	11.99660	89.10000
7.86800	0.00000	0.00000
7.87000	12.26720	89.10000
7.87200	12.26720	89.01000
7.87400	12.26720	89.01000
7.87600	0.00000	0.00000
7.87800	12.17700	88.92000
7.88000	12.26720	89.01000
7.88200	12.17700	89.10000
7.88400	0.00000	0.00000
7.88600	12.08680	89.10000
7.88800	12.17700	89.01000
7.89000	12.26720	88.92000
7.89200	0.00000	0.00000
7.89400	12.17700	88.92000
7.89600	12.35740	88.83000
7.89800	0.00000	0.00000
7.90000	12.35740	88.83000
7.90200	12.35740	88.74000
7.90400	12.35740	88.74000
7.90600	0.00000	0.00000
7.90800	12.17700	88.74000
7.91000	12.17700	88.74000
7.91200	12.35740	88.83000
7.91400	0.00000	0.00000
7.91600	12.35740	88.74000
7.91800	12.35740	88.74000
7.92000	0.00000	0.00000
7.92200	12.26720	88.74000
7.92400	12.26720	88.83000
7.92600	12.26720	88.83000
7.92800	0.00000	0.00000
7.93000	12.35740	88.92000
7.93200	12.44760	88.83000
7.93400	12.44760	88.92000
7.93600	0.00000	0.00000
7.93800	12.26720	88.83000
7.94000	12.26720	88.83000
7.94200	0.00000	0.00000
7.94400	12.35740	88.92000
7.94600	12.26720	88.92000
7.94800	12.26720	88.92000
7.95000	0.00000	0.00000
7.95200	12.08680	89.01000
7.95400	11.99660	89.01000
7.95600	12.08680	89.10000
7.95800	0.00000	0.00000
7.96000	11.90640	88.92000
7.96200	11.81620	88.92000
7.96400	11.90640	89.01000
7.96600	0.00000	0.00000
7.96800	11.81620	89.01000
7.97000	11.81620	89.01000
7.97200	0.00000	0.00000
7.97400	11.81620	88.92000
7.97600	11.81620	89.01000
7.97800	11.81620	89.01000
7.98000	0.00000	0.00000
7.98200	11.72600	89.01000
7.98400	11.72600	89.10000
7.98600	11.72600	89.01000
7.98800	0.00000	0.00000
7.99000	11.81620	89.10000
7.99200	11.72600	89.19000
7.99400	0.00000	0.00000
7.99600	11.81620	89.01000
7.99800	11.81620	89.01000
8.00000	11.99660	88.92000
8.00200	0.00000	0.00000
8.00400	12.17700	89.10000
8.00600	12.08680	89.19000
8.00800	11.99660	89.10000
8.01000	0.00000	0.00000
8.01200	11.99660	89.10000
8.01400	11.99660	89.10000
8.01600	0.00000	0.00000
8.01800	11.90640	89.10000
8.02000	11.90640	89.19000
8.02200	11.81620	89.19000
8.02400	0.00000	0.00000
8.02600	11.90640	89.10000
8.02800	11.90640	89.10000
8.03000	11.99660	89.10000
8.03200	0.00000	0.00000
8.03400	11.90640	89.19000
8.03600	11.81620	89.10000
8.03800	0.00000	0.00000
8.04000	11.90640	89.10000
8.04200	11.81620	89.10000
8.04400	11.81620	89.10000
8.04600	0.00000	0.00000
8.04800	12.08680	88.92000
8.05000	12.08680	88.92000
8.05200	12.17700	88.92000
8.05400	0.00000	0.00000
8.05600	12.26720	88.92000
8.05800	12.26720	88.83000
8.06000	12.17700	88.83000
