/***********************************************************
* Ocean Resources and Renewable Energy Laboratory
* Version: v1.0 (Released on May 1st, 2021)
* Programmed by: Jessica Nguyen (Email: nvnguyen@umass.edu)
*----------------------------------------------------------
* Project Name:	NREL_VGOSWEC_inertia_springs
* Project Lead:	JD
* Labview Operator:	PH
* Comments:	Dry swing test to determine moment of inertia of VGOSWEC with springs. Naming convention: PHI (signed initial pos in deg) VGM (variable geometry module angle in deg).
* Date and Time:	Tue 06 Jul 2021 11:45:10 AM EDT
***********************************************************/

"Time(s)"	"Roll(deg)"	"Pitch(deg)"	
0.00000	6.76500	89.55000
0.00200	6.76500	89.55000
0.00400	6.85520	89.55000
0.00600	6.85520	89.55000
0.00800	0.00000	0.00000
0.01000	6.85520	89.55000
0.01200	6.85520	89.46000
0.01400	6.85520	89.46000
0.01600	0.00000	0.00000
0.01800	6.85520	89.46000
0.02000	6.85520	89.46000
0.02200	6.85520	89.55000
0.02400	0.00000	0.00000
0.02600	6.85520	89.55000
0.02800	7.03560	89.46000
0.03000	0.00000	0.00000
0.03200	7.03560	89.46000
0.03400	7.12580	89.46000
0.03600	7.12580	89.55000
0.03800	0.00000	0.00000
0.04000	7.03560	89.55000
0.04200	7.12580	89.28000
0.04400	7.03560	89.37000
0.04600	0.00000	0.00000
0.04800	7.21600	89.46000
0.05000	7.21600	89.46000
0.05200	7.21600	89.46000
0.05400	0.00000	0.00000
0.05600	7.03560	89.55000
0.05800	6.94540	89.46000
0.06000	0.00000	0.00000
0.06200	6.94540	89.55000
0.06400	6.94540	89.55000
0.06600	6.76500	0.00000
0.06800	0.00000	0.00000
0.07000	6.58460	89.55000
0.07200	6.67480	89.64000
0.07400	6.58460	89.46000
0.07600	0.00000	0.00000
0.07800	6.58460	89.46000
0.08000	6.58460	89.37000
0.08200	6.67480	89.37000
0.08400	0.00000	0.00000
0.08600	6.67480	89.37000
0.08800	6.67480	89.55000
0.09000	0.00000	0.00000
0.09200	6.67480	89.55000
0.09400	6.76500	89.46000
0.09600	6.76500	89.55000
0.09800	0.00000	0.00000
0.10000	6.67480	89.55000
0.10200	6.67480	89.55000
0.10400	6.85520	89.55000
0.10600	0.00000	0.00000
0.10800	6.85520	89.55000
0.11000	6.85520	89.46000
0.11200	6.85520	89.46000
0.11400	0.00000	0.00000
0.11600	6.85520	89.55000
0.11800	6.85520	89.55000
0.12000	6.85520	89.64000
0.12200	0.00000	0.00000
0.12400	6.85520	89.55000
0.12600	6.85520	89.55000
0.12800	0.00000	0.00000
0.13000	6.76500	89.55000
0.13200	6.67480	89.55000
0.13400	6.76500	89.55000
0.13600	0.00000	0.00000
0.13800	6.58460	89.55000
0.14000	6.40420	89.37000
0.14200	6.40420	89.46000
0.14400	0.00000	0.00000
0.14600	6.40420	89.46000
0.14800	6.22380	89.37000
0.15000	6.13360	89.37000
0.15200	0.00000	0.00000
0.15400	6.13360	89.37000
0.15600	6.04340	89.46000
0.15800	0.00000	0.00000
0.16000	6.04340	89.55000
0.16200	6.04340	89.55000
0.16400	6.04340	89.46000
0.16600	0.00000	0.00000
0.16800	6.04340	89.46000
0.17000	6.04340	89.46000
0.17200	6.13360	89.37000
0.17400	0.00000	0.00000
0.17600	6.22380	89.37000
0.17800	6.31400	89.46000
0.18000	6.31400	89.37000
0.18200	0.00000	0.00000
0.18400	6.40420	89.37000
0.18600	6.58460	89.19000
0.18800	0.00000	0.00000
0.19000	6.67480	89.37000
0.19200	6.76500	89.37000
0.19400	6.67480	89.46000
0.19600	0.00000	0.00000
0.19800	6.58460	89.37000
0.20000	6.49440	89.37000
0.20200	6.40420	89.37000
0.20400	0.00000	0.00000
0.20600	6.40420	89.55000
0.20800	6.31400	89.64000
0.21000	6.31400	89.46000
0.21200	0.00000	0.00000
0.21400	6.31400	89.37000
0.21600	6.22380	89.46000
0.21800	0.00000	0.00000
0.22000	6.13360	89.46000
0.22200	6.04340	89.37000
0.22400	5.95320	89.46000
0.22600	0.00000	0.00000
0.22800	6.04340	89.46000
0.23000	6.13360	89.46000
0.23200	6.22380	89.55000
0.23400	0.00000	0.00000
0.23600	6.13360	89.55000
0.23800	6.13360	89.46000
0.24000	0.00000	0.00000
0.24200	6.04340	89.46000
0.24400	6.13360	89.55000
0.24600	6.22380	89.55000
0.24800	0.00000	0.00000
0.25000	6.22380	89.64000
0.25200	6.49440	89.64000
0.25400	6.58460	89.64000
0.25600	0.00000	0.00000
0.25800	6.67480	89.73000
0.26000	6.85520	89.55000
0.26200	0.00000	0.00000
0.26400	6.85520	89.64000
0.26600	6.94540	89.64000
0.26800	7.03560	89.73000
0.27000	0.00000	0.00000
0.27200	7.03560	89.64000
0.27400	7.12580	89.73000
0.27600	7.21600	89.64000
0.27800	0.00000	0.00000
0.28000	7.12580	89.64000
0.28200	7.21600	89.73000
0.28400	7.30620	89.64000
0.28600	0.00000	0.00000
0.28800	7.30620	89.64000
0.29000	7.30620	89.64000
0.29200	0.00000	0.00000
0.29400	7.21600	89.64000
0.29600	7.30620	89.64000
0.29800	7.39640	89.64000
0.30000	0.00000	0.00000
0.30200	7.57680	89.64000
0.30400	7.48660	89.64000
0.30600	7.48660	89.64000
0.30800	0.00000	0.00000
0.31000	7.39640	89.55000
0.31200	7.30620	89.55000
0.31400	7.30620	89.46000
0.31600	0.00000	0.00000
0.31800	7.39640	89.55000
0.32000	7.30620	89.55000
0.32200	0.00000	0.00000
0.32400	7.39640	89.55000
0.32600	7.48660	89.46000
0.32800	7.48660	89.46000
0.33000	0.00000	0.00000
0.33200	7.48660	89.46000
0.33400	7.57680	89.46000
0.33600	7.66700	89.46000
0.33800	0.00000	0.00000
0.34000	7.57680	89.46000
0.34200	7.57680	89.46000
0.34400	0.00000	0.00000
0.34600	7.66700	89.37000
0.34800	7.57680	89.46000
0.35000	7.57680	89.55000
0.35200	0.00000	0.00000
0.35400	7.66700	89.46000
0.35600	7.66700	89.28000
0.35800	0.00000	0.00000
0.36000	7.66700	89.37000
0.36200	7.39640	89.55000
0.36400	7.39640	89.46000
0.36600	0.00000	0.00000
0.36800	7.30620	89.55000
0.37000	7.21600	89.64000
0.37200	7.21600	89.55000
0.37400	0.00000	0.00000
0.37600	7.12580	89.46000
0.37800	6.85520	89.46000
0.38000	0.00000	0.00000
0.38200	6.76500	89.55000
0.38400	6.67480	89.64000
0.38600	6.58460	89.55000
0.38800	0.00000	0.00000
0.39000	6.49440	89.55000
0.39200	6.49440	89.55000
0.39400	6.40420	89.55000
0.39600	0.00000	0.00000
0.39800	6.49440	89.55000
0.40000	6.67480	89.46000
0.40200	6.76500	89.46000
0.40400	0.00000	0.00000
0.40600	6.67480	89.55000
0.40800	6.85520	89.64000
0.41000	0.00000	0.00000
0.41200	6.76500	89.55000
0.41400	6.76500	89.55000
0.41600	6.67480	89.64000
0.41800	0.00000	0.00000
0.42000	6.58460	89.64000
0.42200	6.76500	89.73000
0.42400	6.85520	89.64000
0.42600	0.00000	0.00000
0.42800	6.85520	89.64000
0.43000	6.76500	89.64000
0.43200	6.85520	89.73000
0.43400	0.00000	0.00000
0.43600	6.85520	89.73000
0.43800	6.67480	89.64000
0.44000	6.67480	89.73000
0.44200	0.00000	0.00000
0.44400	6.58460	89.64000
0.44600	6.49440	89.64000
0.44800	6.40420	89.64000
0.45000	0.00000	0.00000
0.45200	6.40420	89.64000
0.45400	6.49440	89.64000
0.45600	0.00000	0.00000
0.45800	6.49440	89.64000
0.46000	6.40420	89.73000
0.46200	6.31400	89.64000
0.46400	0.00000	0.00000
0.46600	6.22380	89.73000
0.46800	6.22380	89.64000
0.47000	6.13360	89.64000
0.47200	0.00000	0.00000
0.47400	6.13360	89.46000
0.47600	6.04340	89.55000
0.47800	5.95320	89.55000
0.48000	0.00000	0.00000
0.48200	5.86300	89.55000
0.48400	5.95320	89.37000
0.48600	5.86300	89.37000
0.48800	0.00000	0.00000
0.49000	5.86300	89.37000
0.49200	5.68260	89.28000
0.49400	0.00000	0.00000
0.49600	5.59240	89.28000
0.49800	5.50220	89.28000
0.50000	5.59240	89.37000
0.50200	0.00000	0.00000
0.50400	5.59240	89.37000
0.50600	5.59240	89.37000
0.50800	5.68260	89.46000
0.51000	0.00000	0.00000
0.51200	5.68260	89.46000
0.51400	5.77280	89.55000
0.51600	0.00000	0.00000
0.51800	5.86300	89.55000
0.52000	5.95320	89.46000
0.52200	5.95320	89.55000
0.52400	0.00000	0.00000
0.52600	6.04340	89.55000
0.52800	6.31400	89.55000
0.53000	6.31400	89.55000
0.53200	0.00000	0.00000
0.53400	6.40420	89.46000
0.53600	6.58460	0.00000
0.53800	0.00000	0.00000
0.54000	6.67480	89.46000
0.54200	6.67480	89.46000
0.54400	6.67480	89.46000
0.54600	0.00000	0.00000
0.54800	6.76500	89.46000
0.55000	6.67480	89.64000
0.55200	6.67480	89.73000
0.55400	0.00000	0.00000
0.55600	6.58460	89.64000
0.55800	6.49440	89.55000
0.56000	0.00000	0.00000
0.56200	6.49440	89.55000
0.56400	6.49440	89.55000
0.56600	6.49440	89.55000
0.56800	0.00000	0.00000
0.57000	6.49440	89.55000
0.57200	6.49440	89.64000
0.57400	6.49440	89.55000
0.57600	0.00000	0.00000
0.57800	6.49440	89.55000
0.58000	6.67480	89.55000
0.58200	6.58460	89.55000
0.58400	0.00000	0.00000
0.58600	6.58460	89.64000
0.58800	6.85520	89.46000
0.59000	6.94540	89.46000
0.59200	0.00000	0.00000
0.59400	6.85520	89.46000
0.59600	0.00000	0.00000
0.59800	0.00000	0.00000
0.60000	7.03560	89.73000
0.60200	7.21600	89.73000
0.60400	7.12580	0.00000
0.60600	0.00000	0.00000
0.60800	7.21600	89.82000
0.61000	7.39640	89.91000
0.61200	7.39640	89.82000
0.61400	0.00000	0.00000
0.61600	7.30620	89.91000
0.61800	7.30620	89.91000
0.62000	7.30620	89.82000
0.62200	0.00000	89.73000
0.62400	7.30620	89.73000
0.62600	7.39640	89.82000
0.62800	7.30620	89.82000
0.63000	7.39640	89.82000
0.63200	7.39640	89.82000
0.63400	7.39640	89.73000
0.63600	0.00000	0.00000
0.63800	7.39640	89.73000
0.64000	7.30620	89.64000
0.64200	7.30620	89.64000
0.64400	0.00000	0.00000
0.64600	7.21600	89.64000
0.64800	7.30620	89.64000
0.65000	7.21600	89.55000
0.65200	0.00000	0.00000
0.65400	7.21600	89.55000
0.65600	7.30620	89.46000
0.65800	0.00000	0.00000
0.66000	7.30620	89.46000
0.66200	7.39640	89.46000
0.66400	0.00000	0.00000
0.66600	0.00000	0.00000
0.66800	7.39640	89.37000
0.67000	7.57680	89.37000
0.67200	7.57680	89.37000
0.67400	0.00000	0.00000
0.67600	7.66700	89.46000
0.67800	0.00000	0.00000
0.68000	0.00000	0.00000
0.68200	7.39640	89.46000
0.68400	7.39640	89.37000
0.68600	0.00000	0.00000
0.68800	7.39640	89.37000
0.69000	7.39640	89.28000
0.69200	7.39640	89.19000
0.69400	0.00000	0.00000
0.69600	7.39640	89.28000
0.69800	7.30620	89.28000
0.70000	0.00000	0.00000
0.70200	7.30620	89.28000
0.70400	7.30620	89.37000
0.70600	7.21600	89.37000
0.70800	0.00000	0.00000
0.71000	7.12580	89.37000
0.71200	7.03560	89.28000
0.71400	6.85520	89.28000
0.71600	0.00000	0.00000
0.71800	6.94540	89.37000
0.72000	6.94540	89.28000
0.72200	0.00000	0.00000
0.72400	0.00000	0.00000
0.72600	6.94540	89.37000
0.72800	6.67480	89.46000
0.73000	0.00000	0.00000
0.73200	6.67480	89.55000
0.73400	6.76500	89.64000
0.73600	6.76500	89.55000
0.73800	0.00000	0.00000
0.74000	6.76500	89.55000
0.74200	6.76500	89.46000
0.74400	6.58460	89.46000
0.74600	0.00000	0.00000
0.74800	6.49440	89.55000
0.75000	6.58460	89.55000
0.75200	0.00000	0.00000
0.75400	0.00000	0.00000
0.75600	6.58460	89.64000
0.75800	6.58460	0.00000
0.76000	0.00000	0.00000
0.76200	6.49440	89.64000
0.76400	6.49440	89.73000
0.76600	6.40420	89.73000
0.76800	0.00000	0.00000
0.77000	6.49440	89.64000
0.77200	6.58460	89.73000
0.77400	6.49440	89.73000
0.77600	0.00000	0.00000
0.77800	6.49440	89.73000
0.78000	6.40420	89.73000
0.78200	6.49440	89.64000
0.78400	0.00000	0.00000
0.78600	6.40420	89.64000
0.78800	6.40420	89.73000
0.79000	6.40420	89.73000
0.79200	0.00000	0.00000
0.79400	6.40420	89.73000
0.79600	6.58460	89.73000
0.79800	0.00000	0.00000
0.80000	6.58460	89.64000
0.80200	6.76500	89.64000
0.80400	6.76500	89.55000
0.80600	0.00000	0.00000
0.80800	6.76500	89.46000
0.81000	6.85520	89.64000
0.81200	0.00000	0.00000
0.81400	6.94540	89.55000
0.81600	7.03560	89.55000
0.81800	7.03560	89.55000
0.82000	0.00000	0.00000
0.82200	7.12580	89.55000
0.82400	7.21600	89.55000
0.82600	7.30620	89.55000
0.82800	0.00000	0.00000
0.83000	7.21600	89.55000
0.83200	7.30620	89.64000
0.83400	0.00000	0.00000
0.83600	7.30620	89.46000
0.83800	7.21600	89.28000
0.84000	7.21600	89.28000
0.84200	0.00000	0.00000
0.84400	7.21600	89.19000
0.84600	7.30620	89.37000
0.84800	7.30620	89.46000
0.85000	0.00000	0.00000
0.85200	7.21600	89.37000
0.85400	7.30620	89.28000
0.85600	0.00000	0.00000
0.85800	7.39640	89.28000
0.86000	7.57680	89.28000
0.86200	7.57680	89.37000
0.86400	0.00000	0.00000
0.86600	7.66700	89.46000
0.86800	7.66700	89.37000
0.87000	7.75720	89.37000
0.87200	0.00000	0.00000
0.87400	7.84740	89.37000
0.87600	7.93760	89.46000
0.87800	0.00000	0.00000
0.88000	8.02780	89.55000
0.88200	8.11800	89.55000
0.88400	8.11800	89.55000
0.88600	0.00000	0.00000
0.88800	8.20820	89.46000
0.89000	8.20820	89.46000
0.89200	8.20820	89.46000
0.89400	0.00000	0.00000
0.89600	8.20820	89.46000
0.89800	8.02780	89.28000
0.90000	8.02780	89.28000
0.90200	0.00000	0.00000
0.90400	8.02780	89.28000
0.90600	8.02780	89.37000
0.90800	0.00000	0.00000
0.91000	7.93760	89.46000
0.91200	7.93760	89.55000
0.91400	7.93760	89.55000
0.91600	0.00000	0.00000
0.91800	7.84740	89.55000
0.92000	7.75720	89.46000
0.92200	7.66700	89.55000
0.92400	0.00000	0.00000
0.92600	7.66700	89.64000
0.92800	7.57680	89.64000
0.93000	7.57680	89.64000
0.93200	0.00000	0.00000
0.93400	7.57680	89.64000
0.93600	0.00000	0.00000
0.93800	0.00000	0.00000
0.94000	7.66700	89.64000
0.94200	7.66700	89.55000
0.94400	7.75720	89.64000
0.94600	0.00000	0.00000
0.94800	7.84740	89.55000
0.95000	7.75720	89.55000
0.95200	7.75720	89.73000
0.95400	0.00000	0.00000
0.95600	7.75720	89.64000
0.95800	7.66700	89.55000
0.96000	7.66700	89.55000
0.96200	0.00000	0.00000
0.96400	7.57680	89.55000
0.96600	7.39640	89.73000
0.96800	0.00000	0.00000
0.97000	7.48660	89.73000
0.97200	7.48660	89.55000
0.97400	7.39640	89.55000
0.97600	0.00000	0.00000
0.97800	7.30620	89.46000
0.98000	7.21600	89.55000
0.98200	7.03560	89.55000
0.98400	0.00000	0.00000
0.98600	6.94540	89.55000
0.98800	6.67480	89.64000
0.99000	0.00000	0.00000
0.99200	6.58460	89.55000
0.99400	6.40420	89.64000
0.99600	6.31400	89.64000
0.99800	0.00000	0.00000
1.00000	6.31400	89.55000
1.00200	6.13360	89.55000
1.00400	6.22380	89.55000
1.00600	0.00000	0.00000
1.00800	6.22380	89.55000
1.01000	6.31400	89.55000
1.01200	0.00000	0.00000
1.01400	6.31400	89.46000
1.01600	6.31400	89.46000
1.01800	6.49440	89.46000
1.02000	0.00000	0.00000
1.02200	6.49440	89.55000
1.02400	6.58460	89.55000
1.02600	6.67480	89.55000
1.02800	0.00000	0.00000
1.03000	6.85520	89.46000
1.03200	7.03560	89.28000
1.03400	7.12580	89.28000
1.03600	0.00000	0.00000
1.03800	7.12580	89.28000
1.04000	7.39640	89.37000
1.04200	7.30620	89.37000
1.04400	0.00000	0.00000
1.04600	7.30620	89.37000
1.04800	7.48660	89.28000
1.05000	7.48660	89.37000
1.05200	0.00000	0.00000
1.05400	7.66700	89.37000
1.05600	7.48660	89.19000
1.05800	7.48660	89.19000
1.06000	0.00000	0.00000
1.06200	7.48660	89.28000
1.06400	7.39640	89.28000
1.06600	0.00000	0.00000
1.06800	7.48660	89.28000
1.07000	7.39640	89.28000
1.07200	7.30620	89.37000
1.07400	0.00000	0.00000
1.07600	7.12580	89.37000
1.07800	7.03560	89.46000
1.08000	6.94540	89.46000
1.08200	0.00000	0.00000
1.08400	7.03560	89.46000
1.08600	6.67480	89.55000
1.08800	0.00000	0.00000
1.09000	6.67480	89.64000
1.09200	6.58460	89.73000
1.09400	6.49440	89.73000
1.09600	0.00000	0.00000
1.09800	6.31400	89.82000
1.10000	6.31400	89.73000
1.10200	6.31400	89.73000
1.10400	0.00000	0.00000
1.10600	6.31400	89.73000
1.10800	6.31400	89.82000
1.11000	6.31400	89.64000
1.11200	0.00000	0.00000
1.11400	6.31400	89.64000
1.11600	6.40420	89.55000
1.11800	0.00000	0.00000
1.12000	6.49440	89.64000
1.12200	6.58460	89.73000
1.12400	6.67480	89.73000
1.12600	0.00000	0.00000
1.12800	6.76500	89.73000
1.13000	6.76500	89.64000
1.13200	6.76500	89.64000
1.13400	0.00000	0.00000
1.13600	6.76500	89.55000
1.13800	6.85520	89.64000
1.14000	6.94540	89.73000
1.14200	0.00000	0.00000
1.14400	6.85520	89.64000
1.14600	6.76500	89.64000
1.14800	6.76500	89.64000
1.15000	0.00000	0.00000
1.15200	6.85520	89.73000
1.15400	6.76500	89.64000
1.15600	6.67480	89.55000
1.15800	0.00000	0.00000
1.16000	6.58460	89.55000
1.16200	6.58460	89.46000
1.16400	0.00000	0.00000
1.16600	6.49440	89.46000
1.16800	6.22380	89.37000
1.17000	6.31400	89.37000
1.17200	0.00000	0.00000
1.17400	6.31400	89.37000
1.17600	6.49440	89.55000
1.17800	6.58460	89.55000
1.18000	0.00000	0.00000
1.18200	6.67480	89.46000
1.18400	6.58460	89.37000
1.18600	0.00000	0.00000
1.18800	6.58460	89.37000
1.19000	6.76500	89.37000
1.19200	7.03560	89.46000
1.19400	0.00000	0.00000
1.19600	7.12580	89.46000
1.19800	7.03560	89.55000
1.20000	7.12580	89.46000
1.20200	0.00000	0.00000
1.20400	7.30620	89.37000
1.20600	7.30620	89.46000
1.20800	7.30620	89.46000
1.21000	0.00000	0.00000
1.21200	7.30620	89.46000
1.21400	7.39640	89.37000
1.21600	7.39640	89.46000
1.21800	0.00000	0.00000
1.22000	7.39640	89.37000
1.22200	7.30620	89.46000
1.22400	0.00000	0.00000
1.22600	7.39640	89.46000
1.22800	7.21600	89.46000
1.23000	7.21600	89.55000
1.23200	0.00000	0.00000
1.23400	7.30620	89.46000
1.23600	7.39640	89.37000
1.23800	7.30620	89.46000
1.24000	0.00000	0.00000
1.24200	7.30620	89.37000
1.24400	7.39640	89.28000
1.24600	0.00000	0.00000
1.24800	7.39640	89.37000
1.25000	7.66700	89.46000
1.25200	7.66700	89.46000
1.25400	0.00000	0.00000
1.25600	7.75720	89.55000
1.25800	7.75720	89.46000
1.26000	0.00000	0.00000
1.26200	7.84740	89.46000
1.26400	7.84740	89.46000
1.26600	7.84740	89.55000
1.26800	0.00000	0.00000
1.27000	8.02780	89.55000
1.27200	7.93760	89.46000
1.27400	7.84740	89.46000
1.27600	0.00000	0.00000
1.27800	7.93760	89.46000
1.28000	7.93760	89.46000
1.28200	7.93760	89.55000
1.28400	0.00000	0.00000
1.28600	7.93760	89.46000
1.28800	7.75720	89.37000
1.29000	7.66700	89.37000
1.29200	0.00000	0.00000
1.29400	7.57680	89.46000
1.29600	7.66700	89.46000
1.29800	0.00000	0.00000
1.30000	7.66700	89.46000
1.30200	7.66700	89.37000
1.30400	7.57680	89.37000
1.30600	0.00000	0.00000
1.30800	7.48660	89.37000
1.31000	7.48660	89.46000
1.31200	7.39640	89.46000
1.31400	0.00000	0.00000
1.31600	7.48660	89.37000
1.31800	7.57680	89.46000
1.32000	7.57680	89.46000
1.32200	0.00000	0.00000
1.32400	7.66700	89.46000
1.32600	7.66700	89.64000
1.32800	0.00000	0.00000
1.33000	7.75720	89.64000
1.33200	7.84740	89.55000
1.33400	7.75720	89.55000
1.33600	0.00000	0.00000
1.33800	7.84740	89.46000
1.34000	7.75720	89.46000
1.34200	7.66700	89.37000
1.34400	0.00000	0.00000
1.34600	7.66700	89.37000
1.34800	7.57680	89.55000
1.35000	0.00000	0.00000
1.35200	7.57680	89.46000
1.35400	7.57680	89.46000
1.35600	7.48660	89.55000
1.35800	0.00000	0.00000
1.36000	7.48660	89.55000
1.36200	7.39640	89.46000
1.36400	7.39640	89.46000
1.36600	0.00000	0.00000
1.36800	7.39640	89.55000
1.37000	7.39640	89.55000
1.37200	7.39640	89.37000
1.37400	0.00000	0.00000
1.37600	7.39640	89.37000
1.37800	7.39640	89.37000
1.38000	7.30620	89.46000
1.38200	0.00000	0.00000
1.38400	7.30620	89.46000
1.38600	7.30620	89.46000
1.38800	7.39640	89.55000
1.39000	0.00000	0.00000
1.39200	7.48660	89.55000
1.39400	7.48660	89.55000
1.39600	0.00000	0.00000
1.39800	7.48660	89.55000
1.40000	7.39640	89.55000
1.40200	7.48660	89.55000
1.40400	0.00000	0.00000
1.40600	7.30620	89.46000
1.40800	7.39640	89.55000
1.41000	7.39640	89.46000
1.41200	0.00000	0.00000
1.41400	7.39640	89.37000
1.41600	7.30620	89.37000
1.41800	7.30620	89.46000
1.42000	0.00000	0.00000
1.42200	7.30620	89.37000
1.42400	7.39640	89.46000
1.42600	7.48660	89.46000
1.42800	0.00000	0.00000
1.43000	7.48660	89.55000
1.43200	7.66700	89.64000
1.43400	0.00000	0.00000
1.43600	7.66700	89.64000
1.43800	7.75720	89.73000
1.44000	7.75720	89.64000
1.44200	0.00000	0.00000
1.44400	7.84740	89.55000
1.44600	8.11800	89.55000
1.44800	8.11800	89.55000
1.45000	0.00000	0.00000
1.45200	8.11800	89.64000
1.45400	8.29840	89.64000
1.45600	0.00000	0.00000
1.45800	8.47880	89.55000
1.46000	8.65920	89.46000
1.46200	8.74940	89.46000
1.46400	0.00000	0.00000
1.46600	8.74940	89.46000
1.46800	8.83960	89.55000
1.47000	8.92980	89.55000
1.47200	0.00000	0.00000
1.47400	8.92980	89.46000
1.47600	8.83960	89.55000
1.47800	0.00000	0.00000
1.48000	8.83960	89.55000
1.48200	8.74940	89.64000
1.48400	8.56900	89.55000
1.48600	0.00000	0.00000
1.48800	8.47880	89.46000
1.49000	8.47880	89.46000
1.49200	8.38860	89.46000
1.49400	0.00000	0.00000
1.49600	8.20820	89.55000
1.49800	8.11800	89.46000
1.50000	0.00000	0.00000
1.50200	8.11800	89.46000
1.50400	7.93760	89.55000
1.50600	7.93760	89.46000
1.50800	0.00000	0.00000
1.51000	7.93760	89.55000
1.51200	7.84740	89.46000
1.51400	7.84740	89.46000
1.51600	0.00000	0.00000
1.51800	7.84740	89.46000
1.52000	7.57680	89.46000
1.52200	7.66700	89.55000
1.52400	0.00000	0.00000
1.52600	7.57680	89.46000
1.52800	7.66700	89.46000
1.53000	0.00000	0.00000
1.53200	7.66700	89.37000
1.53400	7.57680	89.46000
1.53600	7.66700	89.46000
1.53800	0.00000	0.00000
1.54000	7.84740	89.46000
1.54200	7.93760	89.37000
1.54400	7.75720	89.37000
1.54600	0.00000	0.00000
1.54800	7.93760	89.46000
1.55000	7.84740	89.37000
1.55200	0.00000	0.00000
1.55400	7.84740	89.28000
1.55600	7.93760	89.46000
1.55800	7.93760	89.28000
1.56000	0.00000	0.00000
1.56200	8.11800	89.37000
1.56400	8.11800	89.46000
1.56600	0.00000	0.00000
1.56800	8.11800	89.37000
1.57000	8.11800	89.46000
1.57200	8.11800	89.46000
1.57400	0.00000	0.00000
1.57600	8.11800	89.55000
1.57800	8.11800	89.46000
1.58000	8.02780	89.46000
1.58200	0.00000	0.00000
1.58400	8.02780	89.37000
1.58600	7.84740	89.37000
1.58800	7.84740	89.37000
1.59000	0.00000	0.00000
1.59200	7.84740	89.37000
1.59400	7.75720	89.19000
1.59600	0.00000	0.00000
1.59800	7.66700	89.19000
1.60000	7.48660	89.37000
1.60200	7.39640	89.28000
1.60400	0.00000	0.00000
1.60600	7.39640	89.37000
1.60800	7.12580	89.37000
1.61000	7.03560	89.37000
1.61200	0.00000	0.00000
1.61400	6.94540	89.37000
1.61600	6.94540	89.46000
1.61800	6.76500	89.55000
1.62000	0.00000	0.00000
1.62200	6.67480	89.55000
1.62400	6.49440	0.00000
1.62600	0.00000	0.00000
1.62800	6.40420	89.55000
1.63000	6.22380	89.55000
1.63200	0.00000	0.00000
1.63400	0.00000	0.00000
1.63600	5.95320	89.55000
1.63800	5.86300	89.55000
1.64000	5.86300	89.55000
1.64200	0.00000	0.00000
1.64400	5.77280	89.55000
1.64600	5.77280	89.64000
1.64800	0.00000	0.00000
1.65000	5.77280	89.55000
1.65200	6.04340	89.55000
1.65400	6.04340	89.55000
1.65600	0.00000	0.00000
1.65800	6.22380	89.55000
1.66000	6.31400	89.55000
1.66200	6.31400	89.55000
1.66400	0.00000	0.00000
1.66600	6.49440	89.55000
1.66800	6.67480	89.46000
1.67000	6.85520	89.55000
1.67200	0.00000	0.00000
1.67400	6.94540	89.55000
1.67600	7.39640	89.55000
1.67800	0.00000	0.00000
1.68000	7.66700	89.55000
1.68200	7.84740	89.55000
1.68400	0.00000	0.00000
1.68600	7.93760	89.55000
1.68800	8.11800	89.55000
1.69000	8.11800	89.55000
1.69200	0.00000	0.00000
1.69400	8.11800	89.64000
1.69600	8.20820	89.46000
1.69800	8.20820	89.46000
1.70000	0.00000	0.00000
1.70200	8.20820	89.37000
1.70400	8.20820	89.46000
1.70600	8.20820	89.46000
1.70800	0.00000	0.00000
1.71000	8.11800	89.37000
1.71200	8.02780	89.28000
1.71400	0.00000	0.00000
1.71600	8.02780	89.37000
1.71800	7.93760	89.37000
1.72000	7.93760	0.00000
1.72200	0.00000	0.00000
1.72400	8.02780	89.28000
1.72600	8.02780	89.37000
1.72800	8.02780	89.28000
1.73000	0.00000	0.00000
1.73200	8.11800	89.37000
1.73400	8.29840	89.28000
1.73600	8.29840	89.28000
1.73800	0.00000	0.00000
1.74000	8.29840	89.28000
1.74200	8.38860	0.00000
1.74400	0.00000	0.00000
1.74600	8.38860	89.28000
1.74800	8.56900	89.19000
1.75000	8.65920	89.28000
1.75200	0.00000	0.00000
1.75400	8.74940	89.37000
1.75600	8.83960	89.28000
1.75800	8.83960	89.37000
1.76000	0.00000	0.00000
1.76200	8.83960	89.37000
1.76400	8.74940	89.28000
1.76600	8.83960	89.37000
1.76800	0.00000	0.00000
1.77000	8.83960	89.46000
1.77200	9.02000	89.46000
1.77400	9.02000	89.55000
1.77600	0.00000	0.00000
1.77800	9.11020	89.46000
1.78000	9.20040	89.46000
1.78200	0.00000	0.00000
1.78400	9.29060	89.28000
1.78600	9.38080	89.37000
1.78800	9.29060	89.37000
1.79000	0.00000	0.00000
1.79200	9.20040	89.37000
1.79400	9.02000	89.46000
1.79600	9.02000	89.37000
1.79800	0.00000	0.00000
1.80000	9.02000	89.37000
1.80200	9.02000	89.37000
1.80400	9.02000	89.46000
1.80600	0.00000	0.00000
1.80800	9.02000	89.37000
1.81000	8.83960	89.55000
1.81200	0.00000	0.00000
1.81400	0.00000	0.00000
1.81600	8.65920	89.46000
1.81800	8.65920	0.00000
1.82000	0.00000	0.00000
1.82200	8.56900	89.46000
1.82400	8.65920	89.28000
1.82600	8.65920	89.19000
1.82800	0.00000	0.00000
1.83000	8.56900	89.28000
1.83200	8.47880	89.37000
1.83400	8.38860	89.37000
1.83600	0.00000	0.00000
1.83800	8.47880	89.46000
1.84000	8.47880	89.46000
1.84200	8.47880	89.55000
1.84400	0.00000	0.00000
1.84600	8.47880	89.46000
1.84800	8.65920	89.46000
1.85000	8.56900	89.37000
1.85200	0.00000	0.00000
1.85400	8.56900	89.37000
1.85600	8.65920	89.37000
1.85800	0.00000	0.00000
1.86000	8.65920	89.37000
1.86200	8.56900	89.46000
1.86400	8.65920	89.46000
1.86600	0.00000	0.00000
1.86800	8.65920	89.46000
1.87000	8.65920	89.55000
1.87200	8.65920	89.55000
1.87400	0.00000	0.00000
1.87600	8.83960	89.55000
1.87800	8.74940	89.46000
1.88000	8.74940	89.64000
1.88200	0.00000	0.00000
1.88400	8.83960	89.55000
1.88600	8.83960	89.46000
1.88800	8.83960	89.55000
1.89000	0.00000	0.00000
1.89200	8.83960	89.64000
1.89400	8.92980	89.46000
1.89600	0.00000	0.00000
1.89800	8.83960	89.46000
1.90000	8.83960	89.55000
1.90200	8.83960	89.46000
1.90400	0.00000	0.00000
1.90600	8.83960	89.46000
1.90800	8.74940	89.64000
1.91000	8.74940	89.55000
1.91200	0.00000	0.00000
1.91400	8.74940	89.55000
1.91600	8.74940	89.55000
1.91800	8.74940	89.64000
1.92000	0.00000	0.00000
1.92200	8.65920	89.55000
1.92400	8.65920	89.64000
1.92600	0.00000	0.00000
1.92800	8.65920	89.55000
1.93000	8.65920	89.55000
1.93200	8.83960	89.55000
1.93400	0.00000	0.00000
1.93600	8.83960	89.55000
1.93800	8.83960	89.55000
1.94000	8.92980	89.46000
1.94200	0.00000	0.00000
1.94400	8.92980	89.46000
1.94600	8.83960	89.28000
1.94800	8.83960	89.37000
1.95000	0.00000	0.00000
1.95200	8.83960	89.37000
1.95400	8.92980	89.46000
1.95600	0.00000	0.00000
1.95800	8.74940	89.37000
1.96000	8.38860	89.37000
1.96200	8.29840	89.28000
1.96400	0.00000	0.00000
1.96600	8.20820	89.28000
1.96800	8.02780	89.37000
1.97000	7.75720	89.28000
1.97200	0.00000	0.00000
1.97400	7.66700	89.19000
1.97600	7.48660	89.28000
1.97800	0.00000	0.00000
1.98000	7.48660	89.28000
1.98200	7.30620	89.37000
1.98400	7.30620	89.28000
1.98600	0.00000	0.00000
1.98800	7.30620	89.19000
1.99000	7.39640	89.28000
1.99200	7.57680	89.19000
1.99400	0.00000	0.00000
1.99600	7.57680	89.28000
1.99800	7.84740	89.19000
2.00000	0.00000	0.00000
2.00200	7.93760	89.19000
2.00400	8.11800	89.19000
2.00600	8.11800	89.19000
2.00800	0.00000	0.00000
2.01000	8.20820	89.19000
2.01200	8.11800	89.10000
2.01400	8.20820	89.19000
2.01600	0.00000	0.00000
2.01800	8.29840	89.28000
2.02000	8.29840	89.28000
2.02200	8.20820	89.28000
2.02400	0.00000	0.00000
2.02600	8.11800	89.28000
2.02800	7.93760	89.28000
2.03000	0.00000	0.00000
2.03200	7.93760	89.28000
2.03400	7.66700	89.19000
2.03600	7.66700	89.37000
2.03800	0.00000	0.00000
2.04000	7.66700	89.28000
2.04200	7.48660	89.37000
2.04400	7.48660	89.37000
2.04600	0.00000	0.00000
2.04800	7.39640	89.37000
2.05000	7.21600	89.46000
2.05200	7.21600	89.46000
2.05400	0.00000	0.00000
2.05600	7.21600	89.46000
2.05800	7.12580	89.28000
2.06000	0.00000	0.00000
2.06200	7.21600	89.37000
2.06400	7.30620	89.37000
2.06600	7.30620	89.37000
2.06800	0.00000	0.00000
2.07000	7.39640	89.46000
2.07200	7.66700	89.46000
2.07400	7.66700	89.46000
2.07600	0.00000	0.00000
2.07800	7.75720	89.37000
2.08000	8.02780	89.37000
2.08200	8.02780	89.37000
2.08400	0.00000	0.00000
2.08600	8.02780	89.37000
2.08800	8.20820	89.37000
2.09000	8.29840	89.37000
2.09200	0.00000	0.00000
2.09400	8.38860	89.37000
2.09600	8.74940	89.46000
2.09800	8.74940	89.46000
2.10000	0.00000	0.00000
2.10200	8.74940	89.37000
2.10400	8.83960	89.55000
2.10600	0.00000	0.00000
2.10800	8.92980	89.46000
2.11000	8.83960	89.46000
2.11200	8.83960	89.55000
2.11400	0.00000	0.00000
2.11600	8.74940	89.55000
2.11800	8.65920	89.55000
2.12000	0.00000	0.00000
2.12200	8.74940	89.64000
2.12400	8.65920	89.64000
2.12600	8.65920	89.64000
2.12800	0.00000	0.00000
2.13000	8.56900	89.55000
2.13200	8.38860	89.55000
2.13400	8.38860	89.55000
2.13600	0.00000	0.00000
2.13800	8.38860	89.64000
2.14000	8.38860	89.64000
2.14200	8.38860	89.64000
2.14400	0.00000	0.00000
2.14600	8.29840	89.73000
2.14800	8.47880	89.46000
2.15000	8.47880	89.46000
2.15200	0.00000	0.00000
2.15400	8.56900	89.55000
2.15600	8.56900	89.64000
2.15800	8.56900	89.55000
2.16000	0.00000	0.00000
2.16200	8.65920	89.46000
2.16400	8.65920	89.46000
2.16600	0.00000	0.00000
2.16800	8.56900	89.37000
2.17000	8.56900	89.37000
2.17200	8.65920	89.37000
2.17400	0.00000	0.00000
2.17600	8.65920	89.28000
2.17800	8.65920	89.37000
2.18000	8.83960	89.46000
2.18200	0.00000	0.00000
2.18400	8.83960	89.55000
2.18600	9.11020	89.46000
2.18800	9.02000	89.46000
2.19000	0.00000	0.00000
2.19200	9.02000	89.46000
2.19400	9.20040	89.37000
2.19600	9.20040	89.28000
2.19800	0.00000	0.00000
2.20000	9.47100	89.28000
2.20200	9.56120	89.28000
2.20400	9.47100	89.28000
2.20600	0.00000	0.00000
2.20800	9.65140	89.28000
2.21000	9.74160	89.28000
2.21200	0.00000	0.00000
2.21400	9.65140	89.28000
2.21600	9.56120	89.37000
2.21800	9.65140	89.37000
2.22000	0.00000	0.00000
2.22200	9.74160	89.37000
2.22400	9.65140	89.37000
2.22600	9.56120	89.28000
2.22800	0.00000	0.00000
2.23000	9.47100	89.19000
2.23200	9.29060	89.37000
2.23400	9.20040	89.37000
2.23600	0.00000	0.00000
2.23800	9.11020	89.46000
2.24000	8.92980	89.46000
2.24200	0.00000	0.00000
2.24400	8.92980	89.46000
2.24600	8.74940	89.55000
2.24800	8.74940	89.55000
2.25000	0.00000	0.00000
2.25200	8.74940	89.55000
2.25400	8.74940	89.64000
2.25600	8.74940	89.55000
2.25800	0.00000	0.00000
2.26000	8.74940	89.46000
2.26200	8.74940	89.37000
2.26400	8.74940	89.46000
2.26600	0.00000	0.00000
2.26800	8.65920	89.46000
2.27000	8.65920	89.55000
2.27200	0.00000	0.00000
2.27400	8.65920	89.55000
2.27600	8.56900	89.55000
2.27800	8.56900	89.55000
2.28000	0.00000	0.00000
2.28200	8.56900	89.55000
2.28400	8.38860	89.46000
2.28600	8.38860	89.46000
2.28800	0.00000	0.00000
2.29000	8.38860	89.37000
2.29200	8.38860	89.46000
2.29400	0.00000	0.00000
2.29600	8.38860	89.55000
2.29800	8.47880	89.55000
2.30000	8.47880	89.55000
2.30200	0.00000	0.00000
2.30400	8.47880	89.55000
2.30600	8.56900	89.46000
2.30800	8.65920	89.46000
2.31000	0.00000	0.00000
2.31200	8.56900	89.46000
2.31400	8.65920	89.28000
2.31600	0.00000	0.00000
2.31800	8.74940	89.28000
2.32000	8.74940	89.37000
2.32200	8.65920	89.37000
2.32400	0.00000	0.00000
2.32600	8.65920	89.28000
2.32800	8.56900	89.28000
2.33000	8.56900	89.19000
2.33200	0.00000	0.00000
2.33400	8.56900	89.19000
2.33600	8.56900	89.10000
2.33800	8.47880	89.10000
2.34000	0.00000	0.00000
2.34200	8.38860	89.19000
2.34400	8.38860	89.01000
2.34600	0.00000	0.00000
2.34800	8.29840	89.19000
2.35000	8.29840	89.19000
2.35200	8.29840	89.19000
2.35400	0.00000	0.00000
2.35600	8.38860	89.19000
2.35800	8.38860	89.28000
2.36000	0.00000	0.00000
2.36200	8.38860	89.28000
2.36400	8.38860	89.37000
2.36600	8.29840	89.28000
2.36800	0.00000	0.00000
2.37000	8.20820	89.19000
2.37200	8.02780	89.10000
2.37400	8.11800	88.92000
2.37600	0.00000	0.00000
2.37800	8.29840	89.01000
2.38000	8.20820	89.10000
2.38200	8.11800	89.10000
2.38400	0.00000	0.00000
2.38600	8.02780	89.10000
2.38800	7.93760	89.10000
2.39000	0.00000	0.00000
2.39200	7.93760	89.19000
2.39400	8.02780	89.10000
2.39600	8.11800	89.10000
2.39800	0.00000	0.00000
2.40000	8.11800	89.10000
2.40200	8.02780	89.28000
2.40400	8.20820	89.19000
2.40600	0.00000	0.00000
2.40800	8.20820	89.10000
2.41000	8.38860	89.19000
2.41200	8.47880	89.19000
2.41400	0.00000	0.00000
2.41600	8.65920	89.37000
2.41800	8.74940	89.19000
2.42000	0.00000	0.00000
2.42200	8.83960	89.19000
2.42400	9.02000	89.19000
2.42600	9.11020	89.19000
2.42800	0.00000	0.00000
2.43000	9.11020	89.10000
2.43200	9.29060	89.28000
2.43400	9.29060	89.28000
2.43600	0.00000	0.00000
2.43800	9.20040	89.37000
2.44000	9.38080	89.46000
2.44200	9.29060	89.28000
2.44400	0.00000	0.00000
2.44600	9.20040	89.19000
2.44800	9.38080	89.37000
2.45000	9.38080	89.37000
2.45200	0.00000	0.00000
2.45400	9.38080	89.37000
2.45600	9.29060	89.55000
2.45800	0.00000	0.00000
2.46000	9.29060	89.37000
2.46200	9.20040	89.46000
2.46400	9.29060	89.64000
2.46600	0.00000	0.00000
2.46800	9.38080	89.64000
2.47000	9.38080	89.55000
2.47200	9.29060	89.55000
2.47400	0.00000	0.00000
2.47600	9.29060	89.46000
2.47800	9.20040	89.46000
2.48000	0.00000	0.00000
2.48200	9.20040	89.37000
2.48400	9.20040	89.64000
2.48600	9.20040	89.64000
2.48800	0.00000	0.00000
2.49000	9.20040	89.64000
2.49200	9.29060	89.64000
2.49400	9.29060	89.64000
2.49600	0.00000	0.00000
2.49800	9.38080	89.64000
2.50000	9.20040	89.46000
2.50200	0.00000	0.00000
2.50400	9.11020	89.37000
2.50600	9.11020	89.46000
2.50800	9.02000	89.55000
2.51000	0.00000	0.00000
2.51200	9.02000	89.55000
2.51400	9.11020	89.55000
2.51600	9.11020	89.46000
2.51800	0.00000	0.00000
2.52000	9.20040	89.46000
2.52200	9.29060	89.46000
2.52400	9.29060	89.46000
2.52600	0.00000	0.00000
2.52800	9.38080	89.55000
2.53000	9.29060	89.55000
2.53200	0.00000	0.00000
2.53400	9.38080	89.46000
2.53600	9.20040	89.37000
2.53800	9.29060	89.28000
2.54000	0.00000	0.00000
2.54200	9.29060	89.19000
2.54400	9.38080	89.19000
2.54600	9.38080	89.28000
2.54800	0.00000	0.00000
2.55000	9.29060	89.19000
2.55200	9.29060	89.28000
2.55400	9.29060	89.28000
2.55600	0.00000	0.00000
2.55800	9.20040	89.28000
2.56000	9.11020	89.19000
2.56200	0.00000	0.00000
2.56400	8.92980	89.19000
2.56600	9.02000	89.19000
2.56800	8.92980	89.28000
2.57000	0.00000	0.00000
2.57200	8.92980	89.19000
2.57400	8.83960	89.10000
2.57600	9.02000	89.19000
2.57800	0.00000	0.00000
2.58000	8.92980	89.19000
2.58200	8.92980	89.19000
2.58400	9.11020	89.28000
2.58600	0.00000	0.00000
2.58800	9.20040	89.19000
2.59000	9.20040	89.10000
2.59200	0.00000	0.00000
2.59400	9.20040	89.10000
2.59600	9.29060	89.19000
2.59800	9.29060	89.19000
2.60000	0.00000	0.00000
2.60200	9.20040	89.37000
2.60400	9.20040	89.37000
2.60600	9.29060	89.28000
2.60800	0.00000	0.00000
2.61000	9.38080	89.19000
2.61200	9.38080	89.28000
2.61400	9.38080	89.28000
2.61600	0.00000	0.00000
2.61800	9.29060	89.28000
2.62000	9.29060	89.37000
2.62200	9.29060	89.37000
2.62400	0.00000	0.00000
2.62600	9.20040	89.28000
2.62800	9.11020	89.37000
2.63000	8.92980	89.37000
2.63200	0.00000	0.00000
2.63400	8.92980	89.46000
2.63600	8.83960	89.37000
2.63800	0.00000	0.00000
2.64000	8.92980	89.28000
2.64200	8.92980	89.28000
2.64400	8.92980	89.19000
2.64600	0.00000	0.00000
2.64800	8.92980	89.19000
2.65000	8.92980	89.28000
2.65200	8.83960	89.28000
2.65400	0.00000	0.00000
2.65600	8.74940	89.28000
2.65800	8.92980	89.28000
2.66000	8.83960	89.37000
2.66200	0.00000	0.00000
2.66400	8.83960	89.28000
2.66600	8.92980	89.37000
2.66800	9.02000	89.28000
2.67000	0.00000	0.00000
2.67200	9.02000	89.28000
2.67400	9.02000	89.28000
2.67600	0.00000	0.00000
2.67800	9.11020	89.28000
2.68000	8.92980	89.37000
2.68200	0.00000	0.00000
2.68400	9.02000	89.37000
2.68600	8.92980	89.37000
2.68800	0.00000	0.00000
2.69000	8.83960	89.28000
2.69200	9.02000	89.19000
2.69400	8.92980	89.19000
2.69600	0.00000	0.00000
2.69800	8.92980	89.28000
2.70000	8.83960	89.28000
2.70200	8.92980	89.28000
2.70400	0.00000	0.00000
2.70600	8.92980	89.19000
2.70800	9.11020	89.19000
2.71000	0.00000	0.00000
2.71200	9.11020	89.19000
2.71400	9.11020	89.10000
2.71600	9.20040	89.19000
2.71800	0.00000	0.00000
2.72000	9.20040	89.10000
2.72200	9.38080	89.01000
2.72400	9.38080	89.10000
2.72600	0.00000	0.00000
2.72800	9.38080	89.19000
2.73000	9.56120	89.01000
2.73200	9.74160	89.01000
2.73400	0.00000	0.00000
2.73600	9.83180	89.10000
2.73800	9.83180	89.01000
2.74000	9.83180	89.01000
2.74200	0.00000	0.00000
2.74400	9.83180	89.19000
2.74600	9.83180	89.10000
2.74800	0.00000	0.00000
2.75000	9.74160	89.10000
2.75200	9.56120	89.01000
2.75400	9.47100	89.01000
2.75600	0.00000	0.00000
2.75800	9.29060	89.01000
2.76000	9.02000	88.92000
2.76200	9.02000	88.92000
2.76400	0.00000	0.00000
2.76600	8.92980	89.10000
2.76800	8.92980	89.10000
2.77000	8.65920	89.10000
2.77200	0.00000	0.00000
2.77400	8.74940	89.10000
2.77600	8.65920	89.10000
2.77800	8.65920	89.19000
2.78000	0.00000	0.00000
2.78200	8.74940	89.28000
2.78400	8.74940	89.19000
2.78600	0.00000	0.00000
2.78800	8.65920	89.28000
2.79000	8.74940	89.46000
2.79200	8.83960	89.46000
2.79400	0.00000	0.00000
2.79600	8.92980	89.55000
2.79800	8.83960	89.55000
2.80000	9.11020	89.64000
2.80200	0.00000	0.00000
2.80400	9.29060	89.55000
2.80600	9.47100	89.64000
2.80800	9.47100	89.64000
2.81000	0.00000	0.00000
2.81200	9.47100	89.46000
2.81400	9.65140	89.55000
2.81600	0.00000	0.00000
2.81800	9.65140	89.46000
2.82000	9.56120	89.64000
2.82200	9.47100	89.64000
2.82400	9.47100	89.73000
2.82600	0.00000	0.00000
2.82800	9.56120	89.46000
2.83000	9.47100	89.46000
2.83200	0.00000	0.00000
2.83400	9.47100	89.46000
2.83600	9.38080	89.46000
2.83800	9.38080	89.46000
2.84000	0.00000	0.00000
2.84200	9.20040	89.46000
2.84400	9.11020	89.64000
2.84600	9.02000	89.64000
2.84800	0.00000	0.00000
2.85000	8.92980	89.64000
2.85200	8.83960	89.55000
2.85400	8.83960	89.46000
2.85600	0.00000	0.00000
2.85800	8.83960	89.46000
2.86000	8.65920	89.37000
2.86200	8.74940	89.37000
2.86400	0.00000	0.00000
2.86600	8.83960	89.46000
2.86800	8.83960	89.37000
2.87000	0.00000	0.00000
2.87200	8.83960	89.46000
2.87400	8.83960	89.37000
2.87600	8.74940	89.28000
2.87800	0.00000	0.00000
2.88000	8.74940	89.28000
2.88200	8.74940	89.28000
2.88400	8.83960	89.28000
2.88600	0.00000	0.00000
2.88800	9.02000	89.28000
2.89000	8.92980	89.10000
2.89200	8.83960	89.19000
2.89400	0.00000	0.00000
2.89600	8.92980	89.19000
2.89800	9.11020	89.19000
2.90000	9.11020	89.10000
2.90200	0.00000	0.00000
2.90400	9.02000	89.19000
2.90600	9.11020	89.10000
2.90800	0.00000	0.00000
2.91000	9.02000	89.28000
2.91200	9.02000	89.19000
2.91400	9.02000	89.10000
2.91600	0.00000	0.00000
2.91800	8.92980	89.01000
2.92000	9.02000	89.01000
2.92200	9.02000	88.92000
2.92400	0.00000	0.00000
2.92600	9.11020	88.92000
2.92800	9.20040	88.92000
2.93000	9.20040	89.01000
2.93200	0.00000	0.00000
2.93400	9.20040	89.01000
2.93600	9.11020	89.01000
2.93800	0.00000	0.00000
2.94000	9.02000	89.01000
2.94200	8.92980	89.01000
2.94400	9.02000	89.10000
2.94600	0.00000	0.00000
2.94800	9.02000	89.19000
2.95000	9.11020	89.19000
2.95200	9.11020	89.19000
2.95400	0.00000	0.00000
2.95600	9.11020	89.10000
2.95800	9.02000	89.10000
2.96000	9.02000	89.10000
2.96200	0.00000	0.00000
2.96400	9.02000	89.10000
2.96600	8.92980	89.19000
2.96800	8.92980	89.19000
2.97000	0.00000	0.00000
2.97200	9.02000	89.19000
2.97400	9.02000	89.19000
2.97600	0.00000	0.00000
2.97800	9.29060	89.28000
2.98000	9.38080	89.19000
2.98200	9.38080	89.19000
2.98400	0.00000	0.00000
2.98600	9.47100	89.10000
2.98800	9.38080	89.19000
2.99000	9.47100	89.28000
2.99200	0.00000	0.00000
2.99400	9.47100	89.28000
2.99600	9.47100	89.46000
2.99800	9.47100	89.37000
3.00000	0.00000	0.00000
3.00200	9.47100	89.37000
3.00400	9.47100	89.37000
3.00600	9.38080	89.37000
3.00800	0.00000	0.00000
3.01000	9.38080	89.55000
3.01200	9.29060	89.55000
3.01400	0.00000	0.00000
3.01600	9.29060	89.46000
3.01800	9.20040	89.46000
3.02000	9.11020	89.46000
3.02200	0.00000	0.00000
3.02400	9.02000	89.46000
3.02600	9.02000	89.55000
3.02800	8.83960	89.55000
3.03000	0.00000	0.00000
3.03200	8.83960	89.55000
3.03400	8.65920	89.55000
3.03600	0.00000	0.00000
3.03800	8.65920	89.46000
3.04000	8.56900	89.46000
3.04200	8.74940	89.46000
3.04400	0.00000	0.00000
3.04600	8.83960	89.37000
3.04800	8.83960	89.37000
3.05000	8.83960	89.28000
3.05200	0.00000	0.00000
3.05400	8.74940	89.37000
3.05600	8.92980	89.46000
3.05800	8.92980	89.55000
3.06000	0.00000	0.00000
3.06200	8.92980	89.46000
3.06400	9.02000	89.37000
3.06600	0.00000	0.00000
3.06800	9.11020	89.28000
3.07000	9.29060	89.28000
3.07200	9.29060	89.28000
3.07400	0.00000	0.00000
3.07600	9.29060	89.28000
3.07800	9.29060	89.19000
3.08000	9.38080	89.28000
3.08200	0.00000	0.00000
3.08400	9.47100	89.28000
3.08600	9.38080	89.19000
3.08800	9.38080	89.19000
3.09000	0.00000	0.00000
3.09200	9.56120	89.28000
3.09400	9.47100	89.19000
3.09600	9.56120	89.19000
3.09800	0.00000	0.00000
3.10000	9.47100	89.28000
3.10200	9.38080	89.19000
3.10400	0.00000	0.00000
3.10600	9.29060	89.19000
3.10800	9.20040	89.01000
3.11000	9.29060	89.01000
3.11200	0.00000	0.00000
3.11400	9.29060	89.19000
3.11600	9.20040	89.28000
3.11800	9.29060	89.19000
3.12000	0.00000	0.00000
3.12200	9.38080	89.10000
3.12400	9.29060	89.19000
3.12600	0.00000	0.00000
3.12800	9.20040	89.19000
3.13000	9.29060	89.01000
3.13200	9.29060	89.01000
3.13400	0.00000	0.00000
3.13600	9.29060	89.10000
3.13800	9.29060	89.10000
3.14000	9.38080	89.10000
3.14200	0.00000	0.00000
3.14400	9.29060	89.19000
3.14600	9.29060	89.28000
3.14800	0.00000	0.00000
3.15000	9.38080	89.28000
3.15200	9.38080	89.28000
3.15400	9.47100	89.46000
3.15600	0.00000	0.00000
3.15800	9.56120	89.37000
3.16000	9.56120	89.37000
3.16200	9.65140	89.28000
3.16400	0.00000	0.00000
3.16600	9.56120	89.37000
3.16800	9.65140	89.46000
3.17000	9.65140	89.55000
3.17200	0.00000	0.00000
3.17400	9.56120	89.46000
3.17600	9.38080	89.37000
3.17800	9.38080	89.37000
3.18000	0.00000	0.00000
3.18200	9.38080	89.37000
3.18400	9.38080	89.46000
3.18600	0.00000	0.00000
3.18800	9.29060	89.37000
3.19000	9.11020	89.28000
3.19200	9.11020	89.37000
3.19400	0.00000	0.00000
3.19600	9.20040	89.37000
3.19800	9.11020	89.46000
3.20000	9.11020	89.37000
3.20200	0.00000	0.00000
3.20400	9.29060	89.28000
3.20600	9.20040	89.37000
3.20800	0.00000	0.00000
3.21000	9.20040	89.46000
3.21200	9.11020	89.28000
3.21400	9.20040	89.19000
3.21600	0.00000	0.00000
3.21800	9.38080	89.19000
3.22000	9.38080	89.37000
3.22200	9.38080	89.28000
3.22400	0.00000	0.00000
3.22600	9.47100	89.28000
3.22800	9.74160	89.28000
3.23000	0.00000	0.00000
3.23200	9.74160	89.28000
3.23400	9.65140	89.37000
3.23600	9.83180	89.37000
3.23800	0.00000	0.00000
3.24000	9.83180	89.28000
3.24200	9.56120	89.28000
3.24400	9.56120	89.19000
3.24600	0.00000	0.00000
3.24800	9.65140	89.19000
3.25000	9.65140	89.19000
3.25200	9.65140	89.10000
3.25400	0.00000	0.00000
3.25600	9.65140	89.19000
3.25800	9.38080	89.19000
3.26000	0.00000	0.00000
3.26200	9.47100	89.10000
3.26400	9.56120	89.19000
3.26600	9.47100	89.10000
3.26800	0.00000	0.00000
3.27000	9.47100	89.10000
3.27200	9.38080	88.92000
3.27400	0.00000	0.00000
3.27600	9.47100	89.01000
3.27800	9.56120	89.19000
3.28000	9.47100	89.19000
3.28200	0.00000	0.00000
3.28400	9.38080	89.10000
3.28600	9.38080	89.10000
3.28800	9.38080	89.10000
3.29000	0.00000	0.00000
3.29200	9.29060	89.01000
3.29400	9.47100	88.92000
3.29600	9.47100	88.92000
3.29800	0.00000	0.00000
3.30000	9.56120	89.01000
3.30200	9.38080	89.10000
3.30400	0.00000	0.00000
3.30600	9.47100	89.19000
3.30800	9.47100	89.19000
3.31000	9.38080	89.19000
3.31200	0.00000	0.00000
3.31400	9.47100	89.28000
3.31600	9.56120	89.37000
3.31800	9.65140	89.28000
3.32000	0.00000	0.00000
3.32200	9.56120	89.19000
3.32400	9.56120	89.19000
3.32600	9.65140	89.19000
3.32800	0.00000	0.00000
3.33000	9.74160	89.19000
3.33200	9.74160	89.28000
3.33400	0.00000	0.00000
3.33600	9.83180	89.37000
3.33800	9.83180	89.46000
3.34000	9.74160	89.46000
3.34200	0.00000	0.00000
3.34400	9.65140	89.46000
3.34600	9.56120	89.55000
3.34800	0.00000	0.00000
3.35000	9.56120	89.64000
3.35200	9.56120	89.64000
3.35400	9.65140	89.46000
3.35600	0.00000	0.00000
3.35800	9.65140	89.46000
3.36000	9.65140	89.37000
3.36200	9.65140	89.37000
3.36400	0.00000	0.00000
3.36600	9.65140	89.46000
3.36800	9.47100	89.55000
3.37000	0.00000	0.00000
3.37200	9.47100	89.55000
3.37400	9.29060	89.37000
3.37600	9.20040	89.46000
3.37800	0.00000	0.00000
3.38000	9.11020	89.46000
3.38200	9.20040	89.55000
3.38400	9.20040	89.46000
3.38600	0.00000	0.00000
3.38800	9.29060	89.37000
3.39000	9.29060	89.46000
3.39200	0.00000	0.00000
3.39400	9.29060	89.55000
3.39600	9.29060	89.64000
3.39800	9.29060	89.55000
3.40000	0.00000	0.00000
3.40200	9.29060	89.64000
3.40400	9.47100	89.37000
3.40600	9.47100	89.37000
3.40800	0.00000	0.00000
3.41000	9.38080	89.37000
3.41200	9.65140	89.37000
3.41400	0.00000	0.00000
3.41600	9.65140	89.37000
3.41800	9.83180	89.55000
3.42000	9.92200	89.55000
3.42200	0.00000	0.00000
3.42400	10.01220	89.55000
3.42600	10.01220	89.55000
3.42800	10.10240	89.37000
3.43000	0.00000	0.00000
3.43200	10.10240	89.46000
3.43400	10.10240	89.37000
3.43600	10.10240	89.28000
3.43800	0.00000	0.00000
3.44000	10.01220	89.28000
3.44200	9.92200	89.28000
3.44400	0.00000	0.00000
3.44600	9.83180	89.37000
3.44800	9.74160	89.19000
3.45000	9.65140	89.19000
3.45200	0.00000	0.00000
3.45400	9.65140	89.10000
3.45600	9.38080	89.10000
3.45800	9.20040	89.19000
3.46000	0.00000	0.00000
3.46200	9.20040	89.28000
3.46400	9.11020	89.10000
3.46600	9.20040	89.10000
3.46800	0.00000	0.00000
3.47000	9.20040	89.10000
3.47200	9.11020	89.10000
3.47400	9.11020	89.19000
3.47600	0.00000	0.00000
3.47800	9.20040	89.19000
3.48000	9.29060	89.19000
3.48200	0.00000	0.00000
3.48400	9.29060	89.19000
3.48600	9.29060	89.19000
3.48800	9.29060	89.19000
3.49000	0.00000	0.00000
3.49200	9.29060	89.28000
3.49400	9.29060	89.28000
3.49600	9.29060	89.19000
3.49800	0.00000	0.00000
3.50000	9.38080	89.19000
3.50200	9.38080	89.10000
3.50400	0.00000	0.00000
3.50600	9.29060	89.19000
3.50800	9.20040	89.19000
3.51000	9.20040	89.19000
3.51200	0.00000	0.00000
3.51400	9.29060	89.19000
3.51600	9.38080	89.19000
3.51800	9.38080	89.19000
3.52000	0.00000	0.00000
3.52200	9.38080	89.19000
3.52400	9.38080	89.19000
3.52600	0.00000	0.00000
3.52800	9.38080	89.28000
3.53000	9.29060	89.37000
3.53200	9.38080	89.28000
3.53400	0.00000	0.00000
3.53600	9.29060	89.28000
3.53800	9.47100	89.37000
3.54000	9.38080	89.37000
3.54200	0.00000	0.00000
3.54400	9.29060	89.37000
3.54600	9.20040	89.37000
3.54800	9.20040	89.28000
3.55000	0.00000	0.00000
3.55200	9.11020	89.46000
3.55400	9.11020	89.37000
3.55600	0.00000	0.00000
3.55800	9.20040	89.37000
3.56000	9.11020	89.28000
3.56200	9.11020	89.37000
3.56400	0.00000	0.00000
3.56600	9.11020	89.37000
3.56800	8.83960	89.37000
3.57000	8.83960	89.37000
3.57200	0.00000	0.00000
3.57400	8.83960	89.37000
3.57600	8.83960	89.28000
3.57800	8.83960	89.28000
3.58000	0.00000	0.00000
3.58200	8.83960	89.28000
3.58400	9.02000	89.28000
3.58600	0.00000	0.00000
3.58800	9.11020	89.19000
3.59000	9.20040	89.10000
3.59200	9.38080	89.19000
3.59400	0.00000	0.00000
3.59600	9.38080	89.19000
3.59800	9.47100	89.10000
3.60000	0.00000	0.00000
3.60200	9.47100	89.19000
3.60400	9.47100	89.19000
3.60600	9.47100	89.10000
3.60800	0.00000	0.00000
3.61000	9.38080	89.10000
3.61200	9.47100	89.19000
3.61400	9.47100	89.19000
3.61600	0.00000	0.00000
3.61800	9.47100	89.28000
3.62000	9.38080	89.10000
3.62200	9.47100	89.19000
3.62400	0.00000	0.00000
3.62600	9.47100	89.19000
3.62800	9.38080	89.19000
3.63000	9.38080	89.19000
3.63200	0.00000	0.00000
3.63400	9.38080	89.10000
3.63600	9.29060	89.10000
3.63800	9.29060	89.19000
3.64000	0.00000	0.00000
3.64200	9.29060	89.28000
3.64400	9.20040	89.28000
3.64600	0.00000	0.00000
3.64800	9.20040	89.19000
3.65000	9.11020	89.28000
3.65200	9.29060	89.37000
3.65400	0.00000	0.00000
3.65600	9.29060	89.37000
3.65800	9.29060	89.28000
3.66000	9.29060	89.28000
3.66200	0.00000	0.00000
3.66400	9.29060	89.28000
3.66600	9.47100	89.37000
3.66800	9.47100	89.28000
3.67000	0.00000	0.00000
3.67200	9.38080	89.37000
3.67400	9.38080	89.28000
3.67600	0.00000	0.00000
3.67800	9.29060	89.37000
3.68000	9.20040	89.37000
3.68200	0.00000	0.00000
3.68400	9.11020	89.37000
3.68600	9.11020	89.37000
3.68800	9.11020	89.46000
3.69000	0.00000	0.00000
3.69200	9.20040	89.46000
3.69400	8.92980	89.46000
3.69600	8.83960	89.46000
3.69800	0.00000	0.00000
3.70000	8.83960	89.55000
3.70200	8.92980	89.55000
3.70400	9.02000	89.55000
3.70600	0.00000	0.00000
3.70800	9.02000	89.46000
3.71000	9.02000	89.46000
3.71200	0.00000	0.00000
3.71400	9.11020	89.46000
3.71600	9.20040	89.46000
3.71800	9.29060	89.37000
3.72000	0.00000	0.00000
3.72200	9.38080	89.46000
3.72400	9.47100	89.64000
3.72600	9.56120	89.55000
3.72800	0.00000	0.00000
3.73000	9.56120	89.46000
3.73200	9.74160	89.46000
3.73400	0.00000	0.00000
3.73600	9.83180	89.55000
3.73800	10.10240	89.46000
3.74000	10.10240	89.37000
3.74200	0.00000	0.00000
3.74400	10.01220	89.28000
3.74600	10.10240	89.37000
3.74800	10.01220	89.28000
3.75000	0.00000	0.00000
3.75200	10.01220	89.19000
3.75400	9.92200	89.28000
3.75600	10.01220	89.28000
3.75800	0.00000	0.00000
3.76000	10.10240	89.10000
3.76200	10.19260	89.01000
3.76400	10.19260	89.19000
3.76600	0.00000	0.00000
3.76800	10.10240	89.28000
3.77000	10.01220	89.19000
3.77200	0.00000	0.00000
3.77400	10.01220	89.01000
3.77600	9.92200	89.01000
3.77800	9.92200	89.01000
3.78000	0.00000	0.00000
3.78200	9.83180	89.10000
3.78400	10.01220	89.10000
3.78600	9.92200	89.01000
3.78800	0.00000	0.00000
3.79000	9.92200	89.10000
3.79200	9.83180	89.28000
3.79400	9.83180	89.19000
3.79600	0.00000	0.00000
3.79800	9.74160	89.19000
3.80000	9.74160	89.19000
3.80200	0.00000	0.00000
3.80400	9.56120	89.19000
3.80600	9.74160	89.10000
3.80800	9.65140	89.10000
3.81000	0.00000	0.00000
3.81200	9.56120	89.01000
3.81400	9.56120	89.01000
3.81600	9.65140	89.10000
3.81800	0.00000	0.00000
3.82000	9.65140	89.19000
3.82200	9.56120	89.10000
3.82400	9.56120	89.19000
3.82600	0.00000	0.00000
3.82800	9.38080	89.19000
3.83000	9.29060	89.28000
3.83200	9.20040	89.19000
3.83400	0.00000	0.00000
3.83600	9.29060	89.28000
3.83800	9.29060	89.19000
3.84000	0.00000	0.00000
3.84200	9.29060	89.28000
3.84400	9.38080	89.46000
3.84600	9.38080	89.37000
3.84800	0.00000	0.00000
3.85000	9.38080	89.46000
3.85200	9.38080	89.46000
3.85400	9.38080	89.46000
3.85600	0.00000	0.00000
3.85800	9.29060	89.55000
3.86000	9.29060	89.46000
3.86200	0.00000	0.00000
3.86400	9.29060	89.46000
3.86600	9.20040	89.37000
3.86800	9.20040	89.37000
3.87000	0.00000	0.00000
3.87200	9.20040	89.46000
3.87400	9.29060	89.46000
3.87600	9.38080	89.37000
3.87800	0.00000	0.00000
3.88000	9.38080	89.37000
3.88200	9.47100	89.46000
3.88400	9.47100	89.37000
3.88600	0.00000	0.00000
3.88800	9.47100	89.46000
3.89000	9.47100	89.46000
3.89200	0.00000	0.00000
3.89400	9.56120	89.37000
3.89600	9.47100	89.37000
3.89800	9.65140	89.46000
3.90000	0.00000	0.00000
3.90200	9.74160	89.46000
3.90400	9.56120	89.37000
3.90600	9.56120	89.28000
3.90800	0.00000	0.00000
3.91000	9.56120	89.37000
3.91200	9.65140	89.37000
3.91400	9.56120	89.37000
3.91600	0.00000	0.00000
3.91800	9.65140	89.37000
3.92000	9.56120	89.37000
3.92200	9.56120	89.37000
3.92400	0.00000	0.00000
3.92600	9.38080	89.28000
3.92800	9.29060	89.28000
3.93000	0.00000	0.00000
3.93200	9.29060	89.28000
3.93400	9.20040	89.28000
3.93600	9.11020	89.19000
3.93800	0.00000	0.00000
3.94000	9.02000	89.19000
3.94200	8.83960	89.19000
3.94400	8.83960	89.19000
3.94600	0.00000	0.00000
3.94800	8.83960	89.10000
3.95000	8.92980	89.10000
3.95200	9.02000	89.19000
3.95400	0.00000	0.00000
3.95600	9.02000	89.10000
3.95800	9.02000	89.10000
3.96000	9.02000	89.19000
3.96200	0.00000	0.00000
3.96400	9.02000	89.28000
3.96600	9.02000	89.19000
3.96800	0.00000	0.00000
3.97000	9.11020	89.10000
3.97200	9.02000	89.10000
3.97400	9.02000	89.19000
3.97600	0.00000	0.00000
3.97800	8.92980	89.19000
3.98000	9.02000	89.28000
3.98200	9.11020	89.28000
3.98400	0.00000	0.00000
3.98600	9.29060	89.28000
3.98800	9.20040	89.28000
3.99000	0.00000	0.00000
3.99200	9.11020	89.28000
3.99400	8.92980	89.37000
3.99600	8.83960	89.37000
3.99800	0.00000	0.00000
4.00000	8.92980	89.28000
4.00200	8.65920	89.19000
4.00400	8.47880	89.28000
4.00600	0.00000	0.00000
4.00800	8.47880	89.28000
4.01000	8.47880	89.28000
4.01200	0.00000	0.00000
4.01400	8.38860	89.37000
4.01600	8.47880	89.28000
4.01800	8.29840	89.28000
4.02000	8.29840	89.37000
4.02200	0.00000	0.00000
4.02400	8.38860	89.37000
4.02600	0.00000	0.00000
4.02800	0.00000	0.00000
4.03000	8.38860	89.19000
4.03200	8.56900	89.28000
4.03400	8.56900	89.28000
4.03600	0.00000	0.00000
4.03800	8.56900	89.37000
4.04000	8.74940	89.37000
4.04200	0.00000	0.00000
4.04400	8.74940	89.37000
4.04600	8.83960	89.37000
4.04800	8.83960	89.46000
4.05000	0.00000	0.00000
4.05200	9.02000	89.55000
4.05400	9.20040	89.64000
4.05600	9.20040	89.55000
4.05800	0.00000	0.00000
4.06000	9.29060	89.46000
4.06200	9.47100	89.46000
4.06400	9.65140	89.46000
4.06600	0.00000	0.00000
4.06800	9.65140	89.37000
4.07000	9.65140	89.37000
4.07200	9.65140	89.37000
4.07400	0.00000	0.00000
4.07600	9.56120	89.37000
4.07800	9.38080	89.46000
4.08000	0.00000	0.00000
4.08200	9.29060	89.28000
4.08400	9.29060	89.28000
4.08600	9.20040	89.28000
4.08800	0.00000	0.00000
4.09000	9.29060	89.28000
4.09200	9.38080	89.37000
4.09400	9.38080	89.37000
4.09600	0.00000	0.00000
4.09800	9.56120	89.37000
4.10000	9.47100	89.37000
4.10200	0.00000	0.00000
4.10400	9.56120	89.28000
4.10600	9.65140	89.19000
4.10800	9.83180	89.28000
4.11000	0.00000	0.00000
4.11200	9.83180	89.37000
4.11400	10.01220	89.28000
4.11600	10.10240	89.19000
4.11800	0.00000	0.00000
4.12000	10.10240	89.19000
4.12200	0.00000	0.00000
4.12400	0.00000	0.00000
4.12600	10.19260	89.28000
4.12800	10.10240	89.37000
4.13000	10.10240	89.19000
4.13200	0.00000	0.00000
4.13400	10.01220	89.28000
4.13600	10.01220	89.19000
4.13800	10.01220	89.19000
4.14000	0.00000	0.00000
4.14200	9.83180	89.10000
4.14400	9.56120	89.10000
4.14600	9.47100	89.10000
4.14800	0.00000	0.00000
4.15000	9.29060	89.10000
4.15200	9.02000	89.10000
4.15400	9.02000	89.10000
4.15600	0.00000	0.00000
4.15800	9.02000	89.10000
4.16000	8.83960	89.10000
4.16200	8.74940	89.10000
4.16400	0.00000	0.00000
4.16600	8.74940	89.01000
4.16800	8.74940	89.01000
4.17000	0.00000	0.00000
4.17200	8.74940	89.10000
4.17400	8.83960	89.10000
4.17600	8.74940	89.19000
4.17800	0.00000	0.00000
4.18000	8.83960	89.28000
4.18200	8.92980	89.19000
4.18400	9.02000	89.28000
4.18600	0.00000	0.00000
4.18800	9.11020	89.28000
4.19000	9.29060	89.28000
4.19200	9.38080	89.37000
4.19400	0.00000	0.00000
4.19600	9.38080	89.37000
4.19800	9.56120	89.37000
4.20000	0.00000	0.00000
4.20200	9.56120	89.46000
4.20400	9.65140	89.37000
4.20600	9.56120	0.00000
4.20800	0.00000	0.00000
4.21000	9.65140	89.46000
4.21200	9.65140	89.55000
4.21400	9.56120	89.46000
4.21600	0.00000	0.00000
4.21800	9.47100	89.55000
4.22000	9.47100	89.55000
4.22200	0.00000	0.00000
4.22400	9.47100	89.55000
4.22600	9.38080	89.64000
4.22800	9.38080	89.55000
4.23000	0.00000	0.00000
4.23200	9.29060	89.64000
4.23400	9.38080	89.73000
4.23600	9.38080	89.73000
4.23800	0.00000	0.00000
4.24000	9.47100	89.82000
4.24200	9.56120	89.64000
4.24400	9.74160	89.64000
4.24600	0.00000	0.00000
4.24800	9.83180	89.55000
4.25000	9.92200	89.64000
4.25200	9.92200	89.64000
4.25400	0.00000	0.00000
4.25600	10.01220	89.64000
4.25800	10.10240	89.55000
4.26000	0.00000	0.00000
4.26200	10.10240	89.64000
4.26400	10.19260	89.64000
4.26600	0.00000	0.00000
4.26800	0.00000	0.00000
4.27000	10.10240	89.64000
4.27200	9.92200	89.46000
4.27400	9.92200	89.37000
4.27600	0.00000	0.00000
4.27800	9.83180	89.37000
4.28000	9.74160	89.37000
4.28200	0.00000	0.00000
4.28400	9.74160	89.37000
4.28600	9.65140	89.19000
4.28800	9.65140	89.19000
4.29000	0.00000	0.00000
4.29200	9.65140	89.19000
4.29400	9.65140	89.19000
4.29600	9.65140	89.19000
4.29800	0.00000	0.00000
4.30000	9.74160	89.10000
4.30200	9.74160	0.00000
4.30400	0.00000	0.00000
4.30600	9.65140	89.10000
4.30800	9.74160	89.10000
4.31000	9.83180	89.10000
4.31200	0.00000	0.00000
4.31400	9.92200	89.01000
4.31600	10.01220	89.01000
4.31800	10.19260	89.01000
4.32000	0.00000	0.00000
4.32200	10.19260	89.10000
4.32400	10.37300	89.10000
4.32600	10.46320	89.01000
4.32800	0.00000	0.00000
4.33000	10.55340	89.01000
4.33200	10.46320	89.01000
4.33400	0.00000	0.00000
4.33600	10.46320	89.01000
4.33800	10.46320	89.01000
4.34000	10.46320	89.10000
4.34200	0.00000	0.00000
4.34400	10.55340	89.01000
4.34600	10.46320	89.01000
4.34800	0.00000	0.00000
4.35000	10.28280	89.01000
4.35200	10.10240	89.01000
4.35400	10.01220	89.10000
4.35600	0.00000	0.00000
4.35800	9.92200	89.10000
4.36000	9.74160	89.01000
4.36200	9.74160	89.01000
4.36400	0.00000	0.00000
4.36600	9.56120	89.01000
4.36800	9.47100	89.10000
4.37000	9.47100	89.10000
4.37200	0.00000	0.00000
4.37400	9.29060	89.01000
4.37600	9.29060	89.10000
4.37800	9.20040	89.10000
4.38000	0.00000	0.00000
4.38200	9.29060	89.10000
4.38400	9.20040	89.19000
4.38600	0.00000	0.00000
4.38800	9.11020	89.28000
4.39000	8.92980	89.28000
4.39200	8.92980	89.28000
4.39400	0.00000	0.00000
4.39600	8.92980	89.28000
4.39800	9.11020	89.46000
4.40000	9.11020	89.46000
4.40200	0.00000	0.00000
4.40400	9.11020	89.55000
4.40600	9.02000	89.55000
4.40800	9.02000	89.55000
4.41000	0.00000	0.00000
4.41200	8.83960	89.55000
4.41400	8.83960	89.64000
4.41600	0.00000	0.00000
4.41800	8.74940	89.55000
4.42000	8.65920	89.64000
4.42200	8.65920	89.55000
4.42400	0.00000	0.00000
4.42600	8.65920	89.73000
4.42800	8.56900	89.64000
4.43000	8.47880	89.64000
4.43200	0.00000	0.00000
4.43400	8.47880	89.73000
4.43600	8.56900	89.64000
4.43800	0.00000	0.00000
4.44000	8.56900	89.73000
4.44200	8.47880	89.64000
4.44400	8.47880	89.55000
4.44600	0.00000	0.00000
4.44800	8.47880	89.46000
4.45000	8.56900	89.55000
4.45200	8.56900	89.46000
4.45400	0.00000	0.00000
4.45600	8.56900	89.46000
4.45800	8.65920	89.37000
4.46000	8.74940	89.37000
4.46200	0.00000	0.00000
4.46400	8.92980	89.46000
4.46600	8.92980	89.46000
4.46800	0.00000	0.00000
4.47000	9.02000	89.46000
4.47200	9.11020	89.37000
4.47400	9.11020	89.37000
4.47600	0.00000	0.00000
4.47800	9.11020	89.28000
4.48000	9.20040	89.37000
4.48200	9.29060	89.28000
4.48400	0.00000	0.00000
4.48600	9.20040	89.28000
4.48800	9.38080	89.10000
4.49000	9.38080	89.10000
4.49200	0.00000	0.00000
4.49400	9.38080	89.01000
4.49600	9.47100	89.01000
4.49800	0.00000	0.00000
4.50000	9.47100	89.01000
4.50200	9.29060	89.01000
4.50400	9.20040	89.01000
4.50600	0.00000	0.00000
4.50800	9.20040	89.01000
4.51000	9.29060	89.10000
4.51200	9.20040	89.10000
4.51400	0.00000	0.00000
4.51600	9.11020	89.01000
4.51800	9.11020	89.01000
4.52000	9.29060	89.01000
4.52200	0.00000	0.00000
4.52400	9.20040	89.10000
4.52600	9.20040	89.19000
4.52800	0.00000	0.00000
4.53000	9.29060	89.10000
4.53200	9.38080	89.19000
4.53400	9.47100	89.28000
4.53600	0.00000	0.00000
4.53800	9.38080	89.28000
4.54000	9.47100	89.19000
4.54200	9.47100	89.28000
4.54400	0.00000	0.00000
4.54600	9.47100	89.28000
4.54800	9.56120	89.28000
4.55000	0.00000	0.00000
4.55200	9.56120	89.37000
4.55400	9.56120	89.28000
4.55600	9.65140	89.37000
4.55800	0.00000	0.00000
4.56000	9.65140	89.37000
4.56200	9.65140	89.37000
4.56400	9.65140	89.28000
4.56600	0.00000	0.00000
4.56800	9.56120	89.28000
4.57000	9.74160	89.37000
4.57200	0.00000	0.00000
4.57400	9.65140	89.37000
4.57600	9.56120	89.37000
4.57800	9.74160	89.37000
4.58000	0.00000	0.00000
4.58200	9.65140	89.37000
4.58400	9.65140	89.19000
4.58600	9.74160	89.19000
4.58800	0.00000	0.00000
4.59000	9.74160	89.19000
4.59200	9.92200	89.28000
4.59400	9.92200	89.37000
4.59600	0.00000	0.00000
4.59800	10.01220	89.37000
4.60000	9.92200	89.37000
4.60200	0.00000	0.00000
4.60400	9.92200	89.37000
4.60600	9.92200	89.37000
4.60800	9.92200	89.28000
4.61000	0.00000	0.00000
4.61200	9.92200	89.19000
4.61400	9.92200	89.19000
4.61600	10.01220	89.37000
4.61800	0.00000	0.00000
4.62000	9.92200	89.46000
4.62200	9.92200	89.37000
4.62400	0.00000	0.00000
4.62600	9.83180	89.28000
4.62800	9.83180	89.46000
4.63000	9.74160	89.37000
4.63200	0.00000	0.00000
4.63400	9.65140	89.37000
4.63600	9.74160	89.37000
4.63800	9.65140	89.37000
4.64000	0.00000	0.00000
4.64200	9.56120	89.37000
4.64400	0.00000	0.00000
4.64600	0.00000	0.00000
4.64800	9.29060	89.46000
4.65000	9.29060	89.10000
4.65200	9.20040	0.00000
4.65400	0.00000	0.00000
4.65600	9.11020	89.19000
4.65800	9.11020	89.28000
4.66000	9.20040	89.28000
4.66200	0.00000	0.00000
4.66400	9.20040	89.19000
4.66600	9.29060	89.10000
4.66800	0.00000	0.00000
4.67000	0.00000	0.00000
4.67200	9.20040	89.10000
4.67400	9.29060	0.00000
4.67600	0.00000	0.00000
4.67800	9.29060	89.19000
4.68000	9.20040	89.10000
4.68200	0.00000	0.00000
4.68400	9.29060	89.10000
4.68600	9.20040	89.10000
4.68800	9.20040	89.19000
4.69000	0.00000	0.00000
4.69200	9.20040	89.01000
4.69400	9.11020	89.01000
4.69600	0.00000	0.00000
4.69800	9.11020	89.19000
4.70000	9.11020	89.19000
4.70200	9.02000	89.10000
4.70400	0.00000	0.00000
4.70600	9.02000	89.10000
4.70800	9.02000	89.10000
4.71000	8.92980	89.19000
4.71200	0.00000	0.00000
4.71400	8.83960	89.10000
4.71600	9.02000	89.10000
4.71800	8.92980	89.10000
4.72000	0.00000	0.00000
4.72200	8.92980	89.10000
4.72400	8.92980	89.10000
4.72600	0.00000	0.00000
4.72800	9.02000	89.10000
4.73000	9.20040	89.19000
4.73200	9.20040	89.37000
4.73400	0.00000	0.00000
4.73600	9.20040	89.28000
4.73800	9.38080	89.28000
4.74000	9.47100	89.28000
4.74200	0.00000	0.00000
4.74400	9.65140	89.28000
4.74600	9.65140	89.46000
4.74800	0.00000	0.00000
4.75000	9.74160	89.55000
4.75200	9.65140	89.55000
4.75400	9.65140	89.55000
4.75600	0.00000	0.00000
4.75800	9.65140	89.55000
4.76000	9.56120	89.64000
4.76200	9.56120	89.55000
4.76400	0.00000	0.00000
4.76600	9.47100	89.64000
4.76800	9.47100	89.64000
4.77000	0.00000	0.00000
4.77200	9.38080	89.55000
4.77400	9.11020	89.46000
4.77600	8.92980	89.55000
4.77800	0.00000	0.00000
4.78000	8.92980	89.55000
4.78200	9.02000	89.64000
4.78400	9.11020	89.55000
4.78600	0.00000	0.00000
4.78800	9.20040	89.55000
4.79000	9.29060	89.28000
4.79200	9.29060	89.37000
4.79400	0.00000	0.00000
4.79600	9.29060	89.46000
4.79800	9.56120	89.46000
4.80000	9.56120	89.37000
4.80200	0.00000	0.00000
4.80400	9.74160	89.46000
4.80600	9.83180	89.46000
4.80800	9.83180	89.37000
4.81000	0.00000	0.00000
4.81200	9.92200	89.37000
4.81400	10.01220	89.37000
4.81600	0.00000	0.00000
4.81800	10.10240	89.28000
4.82000	10.19260	89.19000
4.82200	10.19260	89.19000
4.82400	0.00000	0.00000
4.82600	10.10240	89.19000
4.82800	10.19260	89.10000
4.83000	10.19260	89.10000
4.83200	0.00000	0.00000
4.83400	10.10240	89.01000
4.83600	9.92200	89.01000
4.83800	9.83180	89.10000
4.84000	0.00000	0.00000
4.84200	9.74160	88.92000
4.84400	9.74160	89.01000
4.84600	9.83180	89.01000
4.84800	0.00000	0.00000
4.85000	9.74160	89.01000
4.85200	9.56120	88.92000
4.85400	0.00000	0.00000
4.85600	9.47100	88.92000
4.85800	9.29060	88.92000
4.86000	9.20040	89.10000
4.86200	0.00000	0.00000
4.86400	9.29060	88.92000
4.86600	9.20040	88.92000
4.86800	9.29060	88.92000
4.87000	0.00000	0.00000
4.87200	9.20040	89.01000
4.87400	9.38080	89.10000
4.87600	0.00000	0.00000
4.87800	9.29060	89.10000
4.88000	9.11020	89.19000
4.88200	9.11020	89.10000
4.88400	9.11020	89.10000
4.88600	0.00000	0.00000
4.88800	9.20040	89.19000
4.89000	9.20040	89.28000
4.89200	0.00000	0.00000
4.89400	9.20040	89.19000
4.89600	9.11020	89.28000
4.89800	9.20040	89.28000
4.90000	0.00000	0.00000
4.90200	9.20040	89.19000
4.90400	9.29060	89.19000
4.90600	9.20040	89.19000
4.90800	0.00000	0.00000
4.91000	9.20040	89.28000
4.91200	9.38080	89.10000
4.91400	0.00000	0.00000
4.91600	9.29060	89.10000
4.91800	9.29060	89.19000
4.92000	9.29060	89.28000
4.92200	0.00000	0.00000
4.92400	9.20040	89.46000
4.92600	9.29060	89.46000
4.92800	9.20040	89.46000
4.93000	0.00000	0.00000
4.93200	9.11020	89.46000
4.93400	9.02000	89.37000
4.93600	8.83960	89.28000
4.93800	0.00000	0.00000
4.94000	8.74940	89.46000
4.94200	8.65920	89.46000
4.94400	0.00000	0.00000
4.94600	8.65920	89.37000
4.94800	8.65920	89.37000
4.95000	8.47880	89.37000
4.95200	0.00000	0.00000
4.95400	8.47880	89.37000
4.95600	8.47880	89.37000
4.95800	0.00000	0.00000
4.96000	8.56900	89.37000
4.96200	8.65920	89.37000
4.96400	8.83960	89.37000
4.96600	0.00000	0.00000
4.96800	8.83960	89.28000
4.97000	9.02000	89.37000
4.97200	9.11020	89.37000
4.97400	0.00000	0.00000
4.97600	9.11020	89.37000
4.97800	9.02000	89.28000
4.98000	9.02000	89.37000
4.98200	0.00000	0.00000
4.98400	9.02000	89.37000
4.98600	9.11020	89.46000
4.98800	0.00000	0.00000
4.99000	9.11020	89.46000
4.99200	9.38080	89.37000
4.99400	9.29060	89.37000
4.99600	0.00000	0.00000
4.99800	9.20040	89.28000
5.00000	9.38080	89.37000
5.00200	9.29060	89.55000
5.00400	0.00000	0.00000
5.00600	9.20040	89.37000
5.00800	9.02000	89.37000
5.01000	0.00000	0.00000
5.01200	9.11020	89.37000
5.01400	9.20040	89.46000
5.01600	9.11020	89.37000
5.01800	0.00000	0.00000
5.02000	9.11020	89.37000
5.02200	9.02000	89.37000
5.02400	8.92980	89.37000
5.02600	0.00000	0.00000
5.02800	9.02000	89.19000
5.03000	8.92980	89.19000
5.03200	8.92980	89.37000
5.03400	0.00000	0.00000
5.03600	8.92980	89.28000
5.03800	8.92980	89.19000
5.04000	0.00000	0.00000
5.04200	8.92980	89.19000
5.04400	9.02000	89.28000
5.04600	9.02000	89.37000
5.04800	0.00000	0.00000
5.05000	9.20040	89.28000
5.05200	9.20040	89.28000
5.05400	9.29060	89.28000
5.05600	0.00000	0.00000
5.05800	9.20040	89.28000
5.06000	9.20040	89.28000
5.06200	0.00000	0.00000
5.06400	9.20040	89.37000
5.06600	9.29060	89.19000
5.06800	9.29060	89.19000
5.07000	0.00000	0.00000
5.07200	9.20040	89.10000
5.07400	9.11020	89.37000
5.07600	9.02000	89.28000
5.07800	0.00000	0.00000
5.08000	8.92980	89.28000
5.08200	8.92980	89.28000
5.08400	0.00000	0.00000
5.08600	9.02000	89.28000
5.08800	9.02000	89.37000
5.09000	9.02000	89.37000
5.09200	0.00000	0.00000
5.09400	9.11020	89.46000
5.09600	9.02000	89.46000
5.09800	9.02000	89.37000
5.10000	0.00000	0.00000
5.10200	9.11020	89.28000
5.10400	9.20040	89.37000
5.10600	9.29060	89.37000
5.10800	0.00000	0.00000
5.11000	9.29060	89.37000
5.11200	9.29060	89.46000
5.11400	0.00000	0.00000
5.11600	9.29060	89.46000
5.11800	9.47100	89.28000
5.12000	9.47100	89.37000
5.12200	0.00000	0.00000
5.12400	9.56120	89.37000
5.12600	9.56120	89.46000
5.12800	0.00000	0.00000
5.13000	9.47100	89.46000
5.13200	9.56120	89.46000
5.13400	9.56120	89.37000
5.13600	0.00000	0.00000
5.13800	9.56120	89.46000
5.14000	9.56120	89.37000
5.14200	9.56120	89.28000
5.14400	0.00000	0.00000
5.14600	9.56120	89.37000
5.14800	9.65140	89.37000
5.15000	9.65140	89.37000
5.15200	0.00000	0.00000
5.15400	9.56120	89.46000
5.15600	9.56120	89.19000
5.15800	9.65140	89.19000
5.16000	0.00000	0.00000
5.16200	9.47100	89.19000
5.16400	9.47100	89.10000
5.16600	0.00000	0.00000
5.16800	9.47100	89.19000
5.17000	9.47100	89.19000
5.17200	9.38080	89.28000
5.17400	0.00000	0.00000
5.17600	9.47100	89.37000
5.17800	9.47100	89.10000
5.18000	9.47100	89.19000
5.18200	0.00000	0.00000
5.18400	9.38080	89.19000
5.18600	9.38080	89.10000
5.18800	0.00000	0.00000
5.19000	9.38080	89.01000
5.19200	9.29060	89.10000
5.19400	9.11020	89.10000
5.19600	0.00000	0.00000
5.19800	9.20040	89.10000
5.20000	9.20040	89.10000
5.20200	9.29060	89.10000
5.20400	0.00000	0.00000
5.20600	9.38080	89.19000
5.20800	9.29060	89.28000
5.21000	0.00000	0.00000
5.21200	9.20040	89.19000
5.21400	9.20040	89.28000
5.21600	9.11020	89.19000
5.21800	0.00000	0.00000
5.22000	9.02000	89.19000
5.22200	9.02000	89.19000
5.22400	9.20040	89.28000
5.22600	0.00000	0.00000
5.22800	9.20040	89.19000
5.23000	9.11020	89.19000
5.23200	0.00000	0.00000
5.23400	9.20040	89.19000
5.23600	9.29060	89.28000
5.23800	9.29060	89.28000
5.24000	0.00000	0.00000
5.24200	9.29060	89.28000
5.24400	9.29060	89.46000
5.24600	9.47100	89.37000
5.24800	0.00000	0.00000
5.25000	9.56120	89.46000
5.25200	9.56120	89.46000
5.25400	0.00000	0.00000
5.25600	9.56120	89.37000
5.25800	9.56120	89.46000
5.26000	9.65140	89.46000
5.26200	0.00000	0.00000
5.26400	9.65140	89.46000
5.26600	9.56120	89.55000
5.26800	9.56120	89.64000
5.27000	0.00000	0.00000
5.27200	9.74160	89.64000
5.27400	9.83180	89.64000
5.27600	9.74160	89.55000
5.27800	0.00000	0.00000
5.28000	9.92200	89.55000
5.28200	9.92200	89.46000
5.28400	0.00000	0.00000
5.28600	9.83180	89.55000
5.28800	9.74160	89.64000
5.29000	9.83180	89.64000
5.29200	0.00000	0.00000
5.29400	9.83180	89.55000
5.29600	9.74160	89.46000
5.29800	9.74160	89.55000
5.30000	0.00000	0.00000
5.30200	9.83180	89.55000
5.30400	9.92200	89.64000
5.30600	0.00000	0.00000
5.30800	9.83180	89.55000
5.31000	9.74160	89.37000
5.31200	9.83180	89.37000
5.31400	0.00000	0.00000
5.31600	9.74160	89.46000
5.31800	9.83180	89.46000
5.32000	9.83180	89.46000
5.32200	0.00000	0.00000
5.32400	9.83180	89.55000
5.32600	9.83180	89.46000
5.32800	0.00000	0.00000
5.33000	9.74160	89.37000
5.33200	9.92200	89.28000
5.33400	9.92200	89.28000
5.33600	0.00000	0.00000
5.33800	9.83180	89.28000
5.34000	10.01220	89.28000
5.34200	9.83180	89.28000
5.34400	0.00000	0.00000
5.34600	9.83180	89.19000
5.34800	9.92200	89.10000
5.35000	0.00000	0.00000
5.35200	9.65140	89.19000
5.35400	9.47100	89.19000
5.35600	9.47100	89.19000
5.35800	0.00000	0.00000
5.36000	9.38080	89.19000
5.36200	9.29060	89.19000
5.36400	9.29060	89.19000
5.36600	0.00000	0.00000
5.36800	9.20040	89.01000
5.37000	9.20040	89.01000
5.37200	0.00000	0.00000
5.37400	9.20040	89.01000
5.37600	9.11020	89.01000
5.37800	9.11020	89.10000
5.38000	0.00000	0.00000
5.38200	9.02000	89.01000
5.38400	8.92980	89.01000
5.38600	8.83960	89.10000
5.38800	0.00000	0.00000
5.39000	8.92980	89.19000
5.39200	8.92980	89.10000
5.39400	9.02000	89.01000
5.39600	0.00000	0.00000
5.39800	9.11020	89.01000
5.40000	9.11020	89.10000
5.40200	9.02000	89.10000
5.40400	0.00000	0.00000
5.40600	9.02000	89.10000
5.40800	9.02000	89.19000
5.41000	0.00000	0.00000
5.41200	9.11020	89.28000
5.41400	9.11020	89.37000
5.41600	9.11020	89.37000
5.41800	0.00000	0.00000
5.42000	9.02000	89.28000
5.42200	9.11020	89.28000
5.42400	9.11020	89.28000
5.42600	0.00000	0.00000
5.42800	9.20040	89.28000
5.43000	9.11020	89.37000
5.43200	0.00000	0.00000
5.43400	9.11020	89.37000
5.43600	8.92980	89.46000
5.43800	8.83960	89.46000
5.44000	0.00000	0.00000
5.44200	8.74940	89.46000
5.44400	8.74940	89.55000
5.44600	8.92980	89.46000
5.44800	0.00000	0.00000
5.45000	8.92980	89.46000
5.45200	8.65920	89.37000
5.45400	8.65920	89.46000
5.45600	0.00000	0.00000
5.45800	8.65920	89.55000
5.46000	8.74940	89.46000
5.46200	0.00000	0.00000
5.46400	8.65920	89.55000
5.46600	8.65920	89.64000
5.46800	8.74940	89.55000
5.47000	0.00000	0.00000
5.47200	8.74940	89.55000
5.47400	8.74940	89.55000
5.47600	8.83960	89.46000
5.47800	0.00000	0.00000
5.48000	8.92980	89.55000
5.48200	9.11020	89.55000
5.48400	9.11020	89.64000
5.48600	0.00000	0.00000
5.48800	9.02000	89.55000
5.49000	9.11020	89.55000
5.49200	9.11020	89.46000
5.49400	0.00000	0.00000
5.49600	9.11020	89.37000
5.49800	9.20040	89.46000
5.50000	0.00000	0.00000
5.50200	9.20040	89.46000
5.50400	9.29060	89.37000
5.50600	9.29060	89.37000
5.50800	0.00000	0.00000
5.51000	9.29060	89.46000
5.51200	9.38080	89.37000
5.51400	9.47100	89.37000
5.51600	0.00000	0.00000
5.51800	9.47100	89.37000
5.52000	9.47100	89.19000
5.52200	9.47100	89.19000
5.52400	0.00000	0.00000
5.52600	9.56120	89.10000
5.52800	9.74160	89.10000
5.53000	0.00000	0.00000
5.53200	9.74160	89.10000
5.53400	9.74160	89.28000
5.53600	9.65140	89.19000
5.53800	0.00000	0.00000
5.54000	9.74160	89.19000
5.54200	9.92200	89.19000
5.54400	9.92200	89.10000
5.54600	0.00000	0.00000
5.54800	9.92200	89.19000
5.55000	9.83180	89.19000
5.55200	0.00000	0.00000
5.55400	9.83180	89.10000
5.55600	9.74160	89.10000
5.55800	9.65140	89.10000
5.56000	0.00000	0.00000
5.56200	9.65140	89.10000
5.56400	9.65140	89.19000
5.56600	9.56120	89.19000
5.56800	0.00000	0.00000
5.57000	9.47100	89.10000
5.57200	9.38080	89.10000
5.57400	0.00000	0.00000
5.57600	9.38080	89.19000
5.57800	9.29060	89.28000
5.58000	9.38080	89.28000
5.58200	0.00000	0.00000
5.58400	9.38080	89.28000
5.58600	9.38080	89.10000
5.58800	9.38080	89.19000
5.59000	0.00000	0.00000
5.59200	9.47100	89.19000
5.59400	9.65140	89.19000
5.59600	0.00000	0.00000
5.59800	9.47100	89.28000
5.60000	9.56120	89.28000
5.60200	9.56120	89.28000
5.60400	0.00000	0.00000
5.60600	9.74160	89.28000
5.60800	9.74160	89.28000
5.61000	9.74160	89.28000
5.61200	0.00000	0.00000
5.61400	9.83180	89.37000
5.61600	9.74160	89.37000
5.61800	9.74160	89.46000
5.62000	0.00000	0.00000
5.62200	9.65140	89.55000
5.62400	9.65140	89.46000
5.62600	0.00000	0.00000
5.62800	9.56120	89.46000
5.63000	9.65140	89.46000
5.63200	9.65140	89.37000
5.63400	0.00000	0.00000
5.63600	9.47100	89.28000
5.63800	9.38080	89.46000
5.64000	9.29060	89.55000
5.64200	0.00000	0.00000
5.64400	9.11020	89.37000
5.64600	9.11020	89.37000
5.64800	0.00000	0.00000
5.65000	9.11020	89.28000
5.65200	9.11020	89.37000
5.65400	9.02000	89.28000
5.65600	0.00000	0.00000
5.65800	9.02000	89.37000
5.66000	9.02000	89.46000
5.66200	8.92980	89.37000
5.66400	0.00000	0.00000
5.66600	8.83960	89.37000
5.66800	8.92980	89.19000
5.67000	9.02000	89.19000
5.67200	0.00000	0.00000
5.67400	8.92980	89.28000
5.67600	9.02000	89.28000
5.67800	0.00000	0.00000
5.68000	8.92980	89.28000
5.68200	8.92980	89.28000
5.68400	0.00000	0.00000
5.68600	8.83960	89.28000
5.68800	8.83960	89.28000
5.69000	8.83960	89.28000
5.69200	0.00000	0.00000
5.69400	8.74940	89.28000
5.69600	8.83960	89.19000
5.69800	0.00000	0.00000
5.70000	8.83960	89.28000
5.70200	8.83960	89.28000
5.70400	8.74940	89.19000
5.70600	0.00000	0.00000
5.70800	8.74940	89.19000
5.71000	8.83960	89.19000
5.71200	8.92980	89.10000
5.71400	0.00000	0.00000
5.71600	8.92980	89.01000
5.71800	8.83960	89.10000
5.72000	0.00000	0.00000
5.72200	8.74940	89.19000
5.72400	8.83960	89.10000
5.72600	8.83960	89.10000
5.72800	0.00000	0.00000
5.73000	8.92980	89.01000
5.73200	9.11020	89.01000
5.73400	9.11020	89.10000
5.73600	0.00000	0.00000
5.73800	9.11020	89.19000
5.74000	9.02000	89.01000
5.74200	0.00000	0.00000
5.74400	9.20040	88.92000
5.74600	9.20040	89.01000
5.74800	9.20040	89.10000
5.75000	0.00000	0.00000
5.75200	9.20040	89.10000
5.75400	9.20040	89.01000
5.75600	9.29060	89.10000
5.75800	0.00000	0.00000
5.76000	9.29060	89.10000
5.76200	9.38080	89.01000
5.76400	9.38080	89.01000
5.76600	0.00000	0.00000
5.76800	9.47100	89.10000
5.77000	9.38080	89.10000
5.77200	0.00000	0.00000
5.77400	9.38080	89.10000
5.77600	9.38080	89.10000
5.77800	9.47100	89.10000
5.78000	0.00000	0.00000
5.78200	9.47100	89.19000
5.78400	9.47100	89.46000
5.78600	9.29060	89.28000
5.78800	0.00000	0.00000
5.79000	9.20040	89.28000
5.79200	9.20040	89.28000
5.79400	0.00000	0.00000
5.79600	9.29060	89.28000
5.79800	9.38080	89.46000
5.80000	9.47100	89.46000
5.80200	0.00000	0.00000
5.80400	9.47100	89.37000
5.80600	9.47100	89.55000
5.80800	9.56120	89.46000
5.81000	0.00000	0.00000
5.81200	9.56120	89.46000
5.81400	9.47100	89.46000
5.81600	0.00000	0.00000
5.81800	9.38080	89.46000
5.82000	9.56120	89.46000
5.82200	9.65140	89.46000
5.82400	0.00000	0.00000
5.82600	9.56120	89.64000
5.82800	9.47100	89.46000
5.83000	9.38080	89.55000
5.83200	0.00000	0.00000
5.83400	9.47100	89.64000
5.83600	9.38080	89.55000
5.83800	9.38080	89.55000
5.84000	0.00000	0.00000
5.84200	9.38080	89.55000
5.84400	9.38080	89.55000
5.84600	0.00000	0.00000
5.84800	9.38080	89.64000
5.85000	9.29060	89.55000
5.85200	9.11020	89.46000
5.85400	0.00000	0.00000
5.85600	9.11020	89.55000
5.85800	9.20040	89.55000
5.86000	9.11020	89.46000
5.86200	0.00000	0.00000
5.86400	9.02000	89.46000
5.86600	9.02000	89.46000
5.86800	0.00000	0.00000
5.87000	9.02000	89.46000
5.87200	9.02000	89.46000
5.87400	9.02000	89.46000
5.87600	0.00000	0.00000
5.87800	9.02000	89.28000
5.88000	9.11020	89.28000
5.88200	9.11020	89.28000
5.88400	0.00000	0.00000
5.88600	9.11020	89.28000
5.88800	9.11020	89.28000
5.89000	9.02000	89.28000
5.89200	0.00000	0.00000
5.89400	9.02000	89.19000
5.89600	9.11020	89.28000
5.89800	9.02000	89.28000
5.90000	0.00000	0.00000
5.90200	9.11020	89.10000
5.90400	9.11020	89.10000
5.90600	0.00000	0.00000
5.90800	9.02000	89.10000
5.91000	9.02000	89.01000
5.91200	9.11020	89.10000
5.91400	0.00000	0.00000
5.91600	9.11020	89.01000
5.91800	9.29060	89.10000
5.92000	9.29060	89.19000
5.92200	0.00000	0.00000
5.92400	9.38080	89.19000
5.92600	9.47100	89.10000
5.92800	0.00000	0.00000
5.93000	9.56120	89.10000
5.93200	9.92200	89.10000
5.93400	9.92200	89.10000
5.93600	0.00000	0.00000
5.93800	9.83180	89.10000
5.94000	9.92200	89.19000
5.94200	10.01220	89.28000
5.94400	0.00000	0.00000
5.94600	10.01220	89.28000
5.94800	9.92200	89.28000
5.95000	0.00000	0.00000
5.95200	9.92200	89.28000
5.95400	9.74160	89.28000
5.95600	9.83180	89.19000
5.95800	0.00000	0.00000
5.96000	9.74160	89.19000
5.96200	9.47100	89.19000
5.96400	9.38080	89.19000
5.96600	0.00000	0.00000
5.96800	9.38080	89.19000
5.97000	9.11020	89.19000
5.97200	0.00000	0.00000
5.97400	9.02000	89.37000
5.97600	8.92980	89.37000
5.97800	8.92980	89.28000
5.98000	0.00000	0.00000
5.98200	9.02000	89.28000
5.98400	8.92980	89.55000
5.98600	8.92980	89.64000
5.98800	0.00000	0.00000
5.99000	8.92980	89.55000
5.99200	8.74940	89.55000
5.99400	8.74940	89.55000
5.99600	0.00000	0.00000
5.99800	8.56900	89.46000
6.00000	8.38860	89.46000
6.00200	0.00000	0.00000
6.00400	8.47880	89.46000
6.00600	8.47880	89.46000
6.00800	8.47880	89.55000
6.01000	0.00000	0.00000
6.01200	8.38860	89.55000
6.01400	8.29840	89.64000
6.01600	8.29840	89.55000
6.01800	0.00000	0.00000
6.02000	8.29840	89.55000
6.02200	8.20820	89.55000
6.02400	0.00000	0.00000
6.02600	8.02780	89.55000
6.02800	7.93760	89.64000
6.03000	7.93760	89.55000
6.03200	0.00000	0.00000
6.03400	7.93760	89.55000
6.03600	7.93760	89.46000
6.03800	7.93760	89.46000
6.04000	0.00000	0.00000
6.04200	7.93760	89.55000
6.04400	8.02780	89.55000
6.04600	0.00000	0.00000
6.04800	8.02780	89.46000
6.05000	8.11800	89.28000
6.05200	8.20820	89.19000
6.05400	0.00000	0.00000
6.05600	8.20820	89.19000
6.05800	8.29840	89.28000
6.06000	8.47880	89.37000
6.06200	0.00000	0.00000
6.06400	8.56900	89.28000
6.06600	8.74940	89.19000
6.06800	8.83960	89.28000
6.07000	0.00000	0.00000
6.07200	8.83960	89.19000
6.07400	9.02000	89.19000
6.07600	0.00000	0.00000
6.07800	9.11020	89.10000
6.08000	9.29060	89.10000
6.08200	9.29060	89.10000
6.08400	0.00000	0.00000
6.08600	9.20040	89.19000
6.08800	9.38080	89.19000
6.09000	9.47100	89.19000
6.09200	0.00000	0.00000
6.09400	9.56120	89.19000
6.09600	9.83180	89.01000
6.09800	0.00000	0.00000
6.10000	9.92200	89.01000
6.10200	10.10240	89.19000
6.10400	10.10240	89.19000
6.10600	0.00000	0.00000
6.10800	10.19260	89.10000
6.11000	10.28280	89.19000
6.11200	10.37300	89.19000
6.11400	0.00000	0.00000
6.11600	10.37300	89.10000
6.11800	10.55340	89.19000
6.12000	0.00000	0.00000
6.12200	10.46320	89.10000
6.12400	10.46320	89.46000
6.12600	10.46320	89.46000
6.12800	0.00000	0.00000
6.13000	10.46320	89.37000
6.13200	10.64360	89.37000
6.13400	10.64360	89.28000
6.13600	0.00000	0.00000
6.13800	10.55340	89.37000
6.14000	10.46320	89.46000
6.14200	0.00000	0.00000
6.14400	10.37300	89.46000
6.14600	10.28280	89.28000
6.14800	10.28280	89.28000
6.15000	0.00000	0.00000
6.15200	10.19260	89.37000
6.15400	10.10240	89.55000
6.15600	10.10240	89.55000
6.15800	0.00000	0.00000
6.16000	10.01220	89.55000
6.16200	10.01220	89.55000
6.16400	10.01220	89.55000
6.16600	0.00000	0.00000
6.16800	10.01220	89.64000
6.17000	10.19260	89.64000
6.17200	0.00000	0.00000
6.17400	10.10240	89.64000
6.17600	10.19260	89.73000
6.17800	10.19260	89.64000
6.18000	0.00000	0.00000
6.18200	10.19260	89.64000
6.18400	10.28280	89.55000
6.18600	10.19260	89.55000
6.18800	0.00000	0.00000
6.19000	10.28280	89.46000
6.19200	10.28280	89.46000
6.19400	0.00000	0.00000
6.19600	10.19260	89.46000
6.19800	10.19260	89.46000
6.20000	10.19260	89.46000
6.20200	0.00000	0.00000
6.20400	10.10240	89.55000
6.20600	9.92200	89.55000
6.20800	9.74160	89.46000
6.21000	0.00000	0.00000
6.21200	9.65140	89.46000
6.21400	9.56120	89.46000
6.21600	9.56120	89.28000
6.21800	0.00000	0.00000
6.22000	9.56120	89.19000
6.22200	9.38080	89.28000
6.22400	9.29060	89.19000
6.22600	0.00000	0.00000
6.22800	9.29060	89.19000
6.23000	9.20040	89.19000
6.23200	0.00000	0.00000
6.23400	9.20040	89.19000
6.23600	9.11020	89.19000
6.23800	9.02000	89.10000
6.24000	0.00000	0.00000
6.24200	8.92980	89.10000
6.24400	8.92980	89.10000
6.24600	8.92980	89.01000
6.24800	0.00000	0.00000
6.25000	9.02000	89.01000
6.25200	9.11020	89.10000
6.25400	0.00000	0.00000
6.25600	9.20040	89.10000
6.25800	9.11020	89.10000
6.26000	9.20040	89.10000
6.26200	0.00000	0.00000
6.26400	9.20040	89.10000
6.26600	9.11020	89.19000
6.26800	9.02000	89.10000
6.27000	0.00000	0.00000
6.27200	8.92980	89.10000
6.27400	8.83960	89.19000
6.27600	8.74940	89.19000
6.27800	0.00000	0.00000
6.28000	8.65920	89.10000
6.28200	0.00000	0.00000
6.28400	0.00000	0.00000
6.28600	8.65920	89.01000
6.28800	8.56900	89.10000
6.29000	0.00000	0.00000
6.29200	0.00000	0.00000
6.29400	8.47880	89.19000
6.29600	8.38860	89.28000
6.29800	8.38860	89.37000
6.30000	0.00000	89.28000
6.30200	8.29840	89.28000
6.30400	8.38860	0.00000
6.30600	0.00000	0.00000
6.30800	8.47880	89.37000
6.31000	8.29840	89.46000
6.31200	8.38860	89.37000
6.31400	0.00000	0.00000
6.31600	8.29840	89.37000
6.31800	8.38860	89.28000
6.32000	8.38860	89.37000
6.32200	0.00000	0.00000
6.32400	8.47880	89.46000
6.32600	0.00000	0.00000
6.32800	0.00000	0.00000
6.33000	8.47880	89.64000
6.33200	8.56900	89.64000
6.33400	0.00000	0.00000
6.33600	0.00000	0.00000
6.33800	8.56900	89.55000
6.34000	8.74940	89.46000
6.34200	8.74940	89.55000
6.34400	0.00000	0.00000
6.34600	8.74940	89.55000
6.34800	8.65920	89.46000
6.35000	0.00000	0.00000
6.35200	8.83960	89.37000
6.35400	8.92980	89.46000
6.35600	8.92980	89.46000
6.35800	0.00000	0.00000
6.36000	9.02000	89.55000
6.36200	8.92980	89.46000
6.36400	9.11020	0.00000
6.36600	0.00000	0.00000
6.36800	9.11020	89.46000
6.37000	9.11020	89.46000
6.37200	0.00000	0.00000
6.37400	9.11020	89.46000
6.37600	9.11020	89.37000
6.37800	0.00000	0.00000
6.38000	0.00000	0.00000
6.38200	9.38080	89.55000
6.38400	9.38080	89.64000
6.38600	9.38080	89.55000
6.38800	0.00000	0.00000
6.39000	9.47100	89.37000
6.39200	9.47100	89.19000
6.39400	9.47100	89.19000
6.39600	0.00000	0.00000
6.39800	9.56120	89.28000
6.40000	0.00000	0.00000
6.40200	0.00000	0.00000
6.40400	9.65140	89.19000
6.40600	9.74160	89.19000
6.40800	0.00000	0.00000
6.41000	0.00000	0.00000
6.41200	9.74160	89.28000
6.41400	9.92200	89.19000
6.41600	10.01220	89.10000
6.41800	0.00000	0.00000
6.42000	9.92200	89.10000
6.42200	9.92200	89.19000
6.42400	0.00000	0.00000
6.42600	9.83180	89.28000
6.42800	9.92200	89.28000
6.43000	9.92200	89.28000
6.43200	0.00000	0.00000
6.43400	9.83180	89.28000
6.43600	9.74160	89.19000
6.43800	9.74160	89.28000
6.44000	0.00000	0.00000
6.44200	9.74160	89.28000
6.44400	9.56120	89.19000
6.44600	0.00000	0.00000
6.44800	9.56120	89.19000
6.45000	9.47100	89.19000
6.45200	9.56120	89.28000
6.45400	0.00000	0.00000
6.45600	9.47100	89.28000
6.45800	9.56120	89.19000
6.46000	9.56120	89.19000
6.46200	0.00000	0.00000
6.46400	9.47100	89.19000
6.46600	9.38080	89.19000
6.46800	0.00000	0.00000
6.47000	9.47100	89.28000
6.47200	9.65140	89.19000
6.47400	9.47100	89.19000
6.47600	0.00000	0.00000
6.47800	9.47100	89.19000
6.48000	9.83180	89.10000
6.48200	9.83180	89.19000
6.48400	0.00000	0.00000
6.48600	9.92200	89.19000
6.48800	9.83180	89.28000
6.49000	9.74160	89.28000
6.49200	0.00000	0.00000
6.49400	9.74160	89.28000
6.49600	9.74160	89.19000
6.49800	0.00000	0.00000
6.50000	9.65140	89.28000
6.50200	9.65140	89.55000
6.50400	9.65140	89.55000
6.50600	0.00000	0.00000
6.50800	9.56120	89.46000
6.51000	9.47100	89.46000
6.51200	9.47100	89.46000
6.51400	0.00000	0.00000
6.51600	9.65140	89.46000
6.51800	9.74160	89.55000
6.52000	9.65140	89.46000
6.52200	0.00000	0.00000
6.52400	9.47100	89.46000
6.52600	9.47100	89.46000
6.52800	0.00000	0.00000
6.53000	9.38080	89.46000
6.53200	9.38080	89.37000
6.53400	9.38080	89.37000
6.53600	0.00000	0.00000
6.53800	9.29060	89.46000
6.54000	9.20040	89.55000
6.54200	9.11020	89.46000
6.54400	0.00000	0.00000
6.54600	9.02000	89.55000
6.54800	9.02000	89.46000
6.55000	0.00000	0.00000
6.55200	0.00000	0.00000
6.55400	8.92980	89.37000
6.55600	0.00000	0.00000
6.55800	0.00000	0.00000
6.56000	8.83960	89.46000
6.56200	8.74940	89.46000
6.56400	8.83960	89.37000
6.56600	0.00000	0.00000
6.56800	8.83960	89.37000
6.57000	8.83960	89.28000
6.57200	8.92980	89.37000
6.57400	0.00000	0.00000
6.57600	8.92980	89.37000
6.57800	8.83960	89.28000
6.58000	0.00000	0.00000
6.58200	8.92980	89.37000
6.58400	8.92980	89.19000
6.58600	8.83960	89.19000
6.58800	0.00000	0.00000
6.59000	8.83960	89.10000
6.59200	8.74940	89.10000
6.59400	8.74940	89.19000
6.59600	0.00000	0.00000
6.59800	8.74940	89.28000
6.60000	8.74940	89.19000
6.60200	8.92980	89.28000
6.60400	0.00000	0.00000
6.60600	8.92980	89.19000
6.60800	9.02000	89.37000
6.61000	0.00000	0.00000
6.61200	9.02000	89.28000
6.61400	8.92980	89.19000
6.61600	8.74940	89.37000
6.61800	0.00000	0.00000
6.62000	8.74940	89.37000
6.62200	8.74940	89.37000
6.62400	8.65920	89.28000
6.62600	0.00000	0.00000
6.62800	8.56900	89.37000
6.63000	8.47880	89.28000
6.63200	8.56900	89.28000
6.63400	0.00000	0.00000
6.63600	8.47880	89.19000
6.63800	8.47880	89.19000
6.64000	8.47880	89.10000
6.64200	0.00000	0.00000
6.64400	8.56900	89.19000
6.64600	8.74940	89.28000
6.64800	0.00000	0.00000
6.65000	8.83960	89.28000
6.65200	8.83960	89.28000
6.65400	8.92980	89.28000
6.65600	0.00000	0.00000
6.65800	8.92980	89.37000
6.66000	9.11020	89.19000
6.66200	9.11020	89.10000
6.66400	0.00000	0.00000
6.66600	9.20040	89.10000
6.66800	9.29060	89.28000
6.67000	9.20040	89.28000
6.67200	0.00000	0.00000
6.67400	9.20040	89.37000
6.67600	9.20040	89.28000
6.67800	0.00000	0.00000
6.68000	9.02000	89.46000
6.68200	8.92980	89.46000
6.68400	0.00000	0.00000
6.68600	8.92980	89.37000
6.68800	9.02000	89.37000
6.69000	8.92980	89.28000
6.69200	0.00000	0.00000
6.69400	9.11020	89.37000
6.69600	9.02000	89.37000
6.69800	9.20040	89.46000
6.70000	0.00000	0.00000
6.70200	9.29060	89.37000
6.70400	9.29060	89.28000
6.70600	0.00000	0.00000
6.70800	9.29060	89.37000
6.71000	9.38080	89.37000
6.71200	9.38080	89.46000
6.71400	0.00000	0.00000
6.71600	9.38080	89.37000
6.71800	9.38080	89.55000
6.72000	9.38080	89.55000
6.72200	0.00000	0.00000
6.72400	9.29060	89.55000
6.72600	9.38080	89.37000
6.72800	9.38080	89.37000
6.73000	0.00000	0.00000
6.73200	9.29060	89.46000
6.73400	9.20040	89.46000
6.73600	0.00000	0.00000
6.73800	9.29060	89.55000
6.74000	9.38080	89.37000
6.74200	9.38080	89.46000
6.74400	0.00000	0.00000
6.74600	9.38080	89.46000
6.74800	9.65140	89.46000
6.75000	9.74160	89.37000
6.75200	0.00000	0.00000
6.75400	9.65140	89.37000
6.75600	9.65140	89.37000
6.75800	0.00000	0.00000
6.76000	9.65140	89.37000
6.76200	9.74160	89.28000
6.76400	9.65140	89.28000
6.76600	0.00000	0.00000
6.76800	9.65140	89.46000
6.77000	9.65140	89.37000
6.77200	9.65140	89.37000
6.77400	0.00000	0.00000
6.77600	9.56120	89.37000
6.77800	9.74160	89.37000
6.78000	0.00000	0.00000
6.78200	9.65140	89.46000
6.78400	9.65140	89.37000
6.78600	9.65140	89.37000
6.78800	0.00000	0.00000
6.79000	9.56120	89.28000
6.79200	9.56120	89.19000
6.79400	9.65140	89.19000
6.79600	0.00000	0.00000
6.79800	9.56120	89.28000
6.80000	9.56120	89.19000
6.80200	0.00000	0.00000
6.80400	9.47100	89.28000
6.80600	9.47100	89.28000
6.80800	9.56120	89.28000
6.81000	0.00000	0.00000
6.81200	9.47100	89.28000
6.81400	9.56120	89.19000
6.81600	9.65140	89.10000
6.81800	0.00000	0.00000
6.82000	9.56120	89.19000
6.82200	9.56120	89.28000
6.82400	0.00000	0.00000
6.82600	9.56120	89.19000
6.82800	9.47100	89.19000
6.83000	9.47100	89.28000
6.83200	0.00000	0.00000
6.83400	9.47100	89.28000
6.83600	9.56120	89.37000
6.83800	9.38080	89.28000
6.84000	0.00000	0.00000
6.84200	9.38080	89.19000
6.84400	9.56120	89.19000
6.84600	9.56120	89.19000
6.84800	0.00000	0.00000
6.85000	9.65140	89.19000
6.85200	9.56120	89.28000
6.85400	9.47100	89.19000
6.85600	0.00000	0.00000
6.85800	9.47100	89.28000
6.86000	9.47100	89.28000
6.86200	0.00000	0.00000
6.86400	9.47100	89.28000
6.86600	9.38080	89.19000
6.86800	9.20040	89.37000
6.87000	0.00000	0.00000
6.87200	9.11020	89.37000
6.87400	9.02000	89.46000
6.87600	8.92980	89.46000
6.87800	0.00000	0.00000
6.88000	8.83960	89.46000
6.88200	8.74940	89.46000
6.88400	8.65920	89.37000
6.88600	0.00000	0.00000
6.88800	8.65920	89.37000
6.89000	8.65920	89.37000
6.89200	0.00000	0.00000
6.89400	8.65920	89.37000
6.89600	8.74940	89.37000
6.89800	8.74940	89.46000
6.90000	0.00000	0.00000
6.90200	8.74940	89.46000
6.90400	8.83960	89.46000
6.90600	8.74940	89.37000
6.90800	0.00000	0.00000
6.91000	8.65920	89.37000
6.91200	8.65920	89.28000
6.91400	0.00000	0.00000
6.91600	8.65920	89.46000
6.91800	8.74940	89.55000
6.92000	8.92980	89.55000
6.92200	0.00000	0.00000
6.92400	9.02000	89.46000
6.92600	8.92980	89.37000
6.92800	8.83960	89.37000
6.93000	0.00000	0.00000
6.93200	8.92980	89.28000
6.93400	9.11020	89.37000
6.93600	0.00000	0.00000
6.93800	9.02000	89.19000
6.94000	9.20040	89.10000
6.94200	9.11020	89.01000
6.94400	0.00000	0.00000
6.94600	9.11020	89.19000
6.94800	9.02000	89.01000
6.95000	9.02000	89.19000
6.95200	0.00000	0.00000
6.95400	9.02000	89.19000
6.95600	9.02000	89.28000
6.95800	8.92980	89.28000
6.96000	0.00000	0.00000
6.96200	8.83960	89.28000
6.96400	8.92980	89.28000
6.96600	8.92980	89.10000
6.96800	0.00000	0.00000
6.97000	9.11020	89.19000
6.97200	9.02000	89.19000
6.97400	0.00000	0.00000
6.97600	9.11020	89.28000
6.97800	9.29060	89.19000
6.98000	9.20040	89.28000
6.98200	0.00000	0.00000
6.98400	9.29060	89.19000
6.98600	9.47100	89.10000
6.98800	9.56120	89.19000
6.99000	0.00000	0.00000
6.99200	9.47100	89.28000
6.99400	9.74160	89.19000
6.99600	0.00000	0.00000
6.99800	9.65140	89.10000
7.00000	9.74160	89.10000
7.00200	9.65140	89.28000
7.00400	0.00000	0.00000
7.00600	9.56120	89.28000
7.00800	9.56120	89.19000
7.01000	9.47100	89.28000
7.01200	0.00000	0.00000
7.01400	9.47100	89.19000
7.01600	9.29060	89.10000
7.01800	9.29060	89.19000
7.02000	0.00000	0.00000
7.02200	9.20040	89.28000
7.02400	9.20040	89.19000
7.02600	0.00000	0.00000
7.02800	9.11020	89.19000
7.03000	8.92980	89.19000
7.03200	8.83960	89.19000
7.03400	0.00000	0.00000
7.03600	8.74940	89.19000
7.03800	8.65920	89.19000
7.04000	8.83960	89.37000
7.04200	0.00000	0.00000
7.04400	8.74940	89.19000
7.04600	8.74940	89.10000
7.04800	0.00000	0.00000
7.05000	8.83960	89.19000
7.05200	9.11020	89.19000
7.05400	9.11020	89.19000
7.05600	0.00000	0.00000
7.05800	9.20040	89.28000
7.06000	9.11020	89.46000
7.06200	9.02000	89.55000
7.06400	0.00000	0.00000
7.06600	9.11020	89.46000
7.06800	9.38080	89.46000
7.07000	0.00000	0.00000
7.07200	9.38080	89.46000
7.07400	9.47100	89.55000
7.07600	9.65140	89.46000
7.07800	0.00000	0.00000
7.08000	9.74160	89.46000
7.08200	9.65140	89.28000
7.08400	9.74160	89.37000
7.08600	0.00000	0.00000
7.08800	9.74160	89.46000
7.09000	9.74160	89.46000
7.09200	0.00000	0.00000
7.09400	9.83180	89.37000
7.09600	9.92200	89.37000
7.09800	9.92200	89.37000
7.10000	0.00000	0.00000
7.10200	9.74160	89.37000
7.10400	9.56120	89.46000
7.10600	9.56120	89.37000
7.10800	0.00000	0.00000
7.11000	9.74160	89.37000
7.11200	9.74160	89.37000
7.11400	0.00000	0.00000
