90 Deg Fixed Reg 14 13-Apr-2018
Time(s) LoadCell(N)
0.000000 -0.152707
0.020000 -0.209238
0.040000 -0.183024
0.060000 -0.124840
0.080000 -0.224992
0.100000 -0.143339
0.120000 -0.069555
0.140000 -0.205541
0.160000 -0.159232
0.180000 -0.052233
0.200000 -0.137079
0.220000 -0.148044
0.240000 -0.086387
0.260000 -0.113791
0.280000 -0.108596
0.300000 -0.087185
0.320000 -0.141392
0.340000 -0.106678
0.360000 -0.047457
0.380000 -0.119183
0.400000 -0.152315
0.420000 -0.039279
0.440000 -0.109940
0.460000 -0.166276
0.480000 -0.051546
0.500000 -0.139684
0.520000 -0.156964
0.540000 -0.118777
0.560000 -0.167746
0.580000 -0.153981
0.600000 -0.207082
0.620000 -0.223214
0.640000 -0.198736
0.660000 -0.263249
0.680000 -0.216730
0.700000 -0.321209
0.720000 -0.256542
0.740000 -0.193610
0.760000 -0.399474
0.780000 -0.263473
0.800000 -0.236475
0.820000 -0.362267
0.840000 -0.309951
0.860000 -0.308046
0.880000 -0.298538
0.900000 -0.303565
0.920000 -0.373428
0.940000 -0.328939
0.960000 -0.300540
0.980000 -0.386423
1.000000 -0.342466
1.020000 -0.359635
1.040000 -0.360433
1.060000 -0.346275
1.080000 -0.397822
1.100000 -0.332776
1.120000 -0.394097
1.140000 -0.354033
1.160000 -0.315286
1.180000 -0.399460
1.200000 -0.342130
1.220000 -0.342900
1.240000 -0.288259
1.260000 -0.356848
1.280000 -0.353319
1.300000 -0.217136
1.320000 -0.319319
1.340000 -0.313731
1.360000 -0.300204
1.380000 -0.243883
1.400000 -0.276160
1.420000 -0.323870
1.440000 -0.254623
1.460000 -0.240830
1.480000 -0.285025
1.500000 -0.299616
1.520000 -0.203091
1.540000 -0.257886
1.560000 -0.267576
1.580000 -0.247159
1.600000 -0.177703
1.620000 -0.286005
1.640000 -0.268207
1.660000 -0.158000
1.680000 -0.236545
1.700000 -0.285319
1.720000 -0.248826
1.740000 -0.139221
1.760000 -0.271763
1.780000 -0.318717
1.800000 -0.238449
1.820000 -0.186063
1.840000 -0.268193
1.860000 -0.390582
1.880000 -0.233366
1.900000 -0.198288
1.920000 -0.416866
1.940000 -0.333434
1.960000 -0.253167
1.980000 -0.355714
2.000000 -0.388565
2.020000 -0.317820
2.040000 -0.319599
2.060000 -0.362085
2.080000 -0.438277
2.100000 -0.273766
2.120000 -0.314404
2.140000 -0.469883
2.160000 -0.321867
2.180000 -0.292208
2.200000 -0.347578
2.220000 -0.461005
2.240000 -0.340072
2.260000 -0.232344
2.280000 -0.484068
2.300000 -0.472011
2.320000 -0.314221
2.340000 -0.373470
2.360000 -0.552461
2.380000 -0.527395
2.400000 -0.406714
2.420000 -0.516892
2.440000 -0.692704
2.460000 -0.567262
2.480000 -0.552027
2.500000 -0.732530
2.520000 -0.712785
2.540000 -0.684470
2.560000 -0.727951
2.580000 -0.825806
2.600000 -0.822376
2.620000 -0.716048
2.640000 -0.902251
2.660000 -0.921716
2.680000 -0.812713
2.700000 -0.863448
2.720000 -0.998664
2.740000 -0.982868
2.760000 -0.831310
2.780000 -0.981048
2.800000 -1.071664
2.820000 -0.970895
2.840000 -0.913468
2.860000 -1.015902
2.880000 -1.113464
2.900000 -0.946810
2.920000 -0.915260
2.940000 -1.073120
2.960000 -1.022372
2.980000 -0.900991
3.000000 -0.955646
3.020000 -1.005190
3.040000 -0.947888
3.060000 -0.901775
3.080000 -0.911689
3.100000 -0.977967
3.120000 -0.819715
3.140000 -0.846265
3.160000 -0.920105
3.180000 -0.789482
3.200000 -0.775590
3.220000 -0.796189
3.240000 -0.831254
3.260000 -0.679975
3.280000 -0.619747
3.300000 -0.739210
3.320000 -0.642026
3.340000 -0.499430
3.360000 -0.497105
3.380000 -0.524958
3.400000 -0.453877
3.420000 -0.303831
3.440000 -0.300386
3.460000 -0.369381
3.480000 -0.189494
3.500000 -0.131842
3.520000 -0.179901
3.540000 -0.062889
3.560000 -0.028693
3.580000 0.018708
3.600000 0.055999
3.620000 0.126086
3.640000 0.206480
3.660000 0.198288
3.680000 0.265588
3.700000 0.382838
3.720000 0.406854
3.740000 0.376256
3.760000 0.515674
3.780000 0.598924
3.800000 0.598756
3.820000 0.615560
3.840000 0.758800
3.860000 0.852315
3.880000 0.833102
3.900000 0.882576
3.920000 1.030466
3.940000 1.133096
3.960000 1.105454
3.980000 1.216276
4.000000 1.370005
4.020000 1.453745
4.040000 1.519365
4.060000 1.611339
4.080000 1.776929
4.100000 1.864338
4.120000 1.982050
4.140000 2.084737
4.160000 2.206006
4.180000 2.360912
4.200000 2.454118
4.220000 2.615059
4.240000 2.703896
4.260000 2.882453
4.280000 3.107641
4.300000 3.192627
4.320000 3.234189
4.340000 3.393492
4.360000 3.595322
4.380000 3.655915
4.400000 3.706425
4.420000 3.889925
4.440000 4.087737
4.460000 4.152348
4.480000 4.176700
4.500000 4.338915
4.520000 4.547523
4.540000 4.575796
4.560000 4.591956
4.580000 4.739929
4.600000 4.894947
4.620000 4.949420
4.640000 5.039685
4.660000 5.172465
4.680000 5.387165
4.700000 5.495901
4.720000 5.564826
4.740000 5.760159
4.760000 5.828467
4.780000 5.953279
4.800000 6.002151
4.820000 5.972296
4.840000 5.922948
4.860000 5.787675
4.880000 5.716902
4.900000 5.480665
4.920000 5.190040
4.940000 5.060354
4.960000 4.906948
4.980000 4.698521
5.000000 4.525132
5.020000 4.465337
5.040000 4.435342
5.060000 4.314269
5.080000 4.170020
5.100000 4.167528
5.120000 4.113503
5.140000 3.975430
5.160000 3.948753
5.180000 3.874465
5.200000 3.864789
5.220000 3.787911
5.240000 3.679090
5.260000 3.661558
5.280000 3.513193
5.300000 3.355179
5.320000 3.215425
5.340000 3.035440
5.360000 2.815867
5.380000 2.626457
5.400000 2.476495
5.420000 2.248661
5.440000 2.003336
5.460000 1.773330
5.480000 1.543507
5.500000 1.239900
5.520000 0.897518
5.540000 0.617591
5.560000 0.373092
5.580000 0.038327
5.600000 -0.295387
5.620000 -0.552461
5.640000 -0.862495
5.660000 -1.210437
5.680000 -1.664902
5.700000 -2.009553
5.720000 -2.376889
5.740000 -2.852514
5.760000 -3.227524
5.780000 -3.641659
5.800000 -4.016375
5.820000 -4.424322
5.840000 -4.894233
5.860000 -5.237385
5.880000 -5.717658
5.900000 -6.168945
5.920000 -6.550803
5.940000 -7.061113
5.960000 -7.505706
5.980000 -7.939152
6.000000 -8.449869
6.020000 -8.883147
6.040000 -9.395152
6.060000 -10.130720
6.080000 -10.794000
6.100000 -11.056050
6.120000 -11.291600
6.140000 -11.761880
6.160000 -12.195240
6.180000 -12.402470
6.200000 -12.605140
6.220000 -12.758270
6.240000 -12.747250
6.260000 -12.641170
6.280000 -12.525210
6.300000 -12.401750
6.320000 -11.829160
6.340000 -11.194220
6.360000 -10.962830
6.380000 -10.752230
6.400000 -10.449210
6.420000 -10.254260
6.440000 -9.917954
6.460000 -9.488415
6.480000 -9.102832
6.500000 -8.642486
6.520000 -8.012082
6.540000 -7.106820
6.560000 -6.282848
6.580000 -5.652417
6.600000 -4.929661
6.620000 -4.274458
6.640000 -3.927440
6.660000 -3.500856
6.680000 -3.021744
6.700000 -2.667277
6.720000 -2.206903
6.740000 -1.681958
6.760000 -1.277989
6.780000 -0.913258
6.800000 -0.581574
6.820000 -0.313521
6.840000 -0.053073
6.860000 0.133508
6.880000 0.443375
6.900000 0.822418
6.920000 1.064088
6.940000 1.371378
6.960000 1.756344
6.980000 1.912580
7.000000 2.007705
7.020000 2.170270
7.040000 2.245118
7.060000 2.355450
7.080000 2.497878
7.100000 2.685033
7.120000 2.927558
7.140000 3.050087
7.160000 3.282823
7.180000 3.419244
7.200000 3.374195
7.220000 3.591513
7.240000 3.706243
7.260000 3.787336
7.280000 4.043052
7.300000 4.342948
7.320000 4.606295
7.340000 4.836609
7.360000 5.074764
7.380000 5.314782
7.400000 5.474518
7.420000 5.681250
7.440000 5.922836
7.460000 6.270469
7.480000 6.646208
7.500000 6.993253
7.520000 7.490989
7.540000 7.846534
7.560000 8.176888
7.580000 8.581683
7.600000 8.875754
7.620000 9.164209
7.640000 9.590499
7.660000 9.999748
7.680000 10.475500
7.700000 10.897840
7.720000 11.402870
7.740000 11.884610
7.760000 12.189130
7.780000 12.500610
7.800000 12.886640
7.820000 13.242140
7.840000 13.555570
7.860000 13.986140
7.880000 14.410460
7.900000 14.667990
7.920000 14.768260
7.940000 14.734190
7.960000 14.622480
7.980000 14.375180
8.000000 14.171310
8.020000 14.054520
8.040000 14.022800
8.060000 14.023170
8.080000 14.125220
8.100000 14.394960
8.120000 14.611480
8.140000 14.605960
8.160000 14.329570
8.180000 14.008700
8.200000 13.373680
8.220000 12.635670
8.240000 11.992820
8.260000 11.420630
8.280000 10.941360
8.300000 10.417220
8.320000 9.940023
8.340000 9.489787
8.360000 8.963807
8.380000 8.448413
8.400000 7.921704
8.420000 7.471818
8.440000 7.210879
8.460000 7.036159
8.480000 6.844509
8.500000 6.687126
8.520000 6.527445
8.540000 6.243387
8.560000 5.859863
8.580000 5.377489
8.600000 4.933078
8.620000 4.526658
8.640000 4.191530
8.660000 3.966215
8.680000 3.797265
8.700000 3.677480
8.720000 3.537558
8.740000 3.217427
8.760000 2.874695
8.780000 2.469046
8.800000 2.004274
8.820000 1.561767
8.840000 1.164576
8.860000 0.822068
8.880000 0.591306
8.900000 0.322483
8.920000 -0.102953
8.940000 -0.566268
8.960000 -1.016112
8.980000 -1.650045
9.000000 -2.335649
9.020000 -2.943690
9.040000 -3.444478
9.060000 -3.834472
9.080000 -4.283658
9.100000 -4.709556
9.120000 -5.019493
9.140000 -5.435183
9.160000 -5.953979
9.180000 -6.540468
9.200000 -7.048160
9.220000 -7.488062
9.240000 -7.989144
9.260000 -8.333375
9.280000 -8.594286
9.300000 -8.912863
9.320000 -9.197005
9.340000 -9.607149
9.360000 -10.075670
9.380000 -10.570850
9.400000 -11.127610
9.420000 -11.578660
9.440000 -12.022870
9.460000 -12.409530
9.480000 -12.629640
9.500000 -12.971250
9.520000 -13.537430
9.540000 -14.017450
9.560000 -13.798240
9.580000 -13.577760
9.600000 -13.846440
9.620000 -13.849570
9.640000 -13.288160
9.660000 -12.749620
9.680000 -12.755250
9.700000 -12.516710
9.720000 -11.729110
9.740000 -11.116040
9.760000 -10.830300
9.780000 -10.173700
9.800000 -9.090019
9.820000 -8.217567
9.840000 -7.460910
9.860000 -6.745758
9.880000 -6.302495
9.900000 -5.768141
9.920000 -5.057652
9.940000 -4.674786
9.960000 -4.425134
9.980000 -3.927426
10.000000 -3.110736
10.020000 -2.239586
10.040000 -1.811798
10.060000 -1.156944
10.080000 -0.400384
10.100000 -0.318115
10.120000 -0.279773
10.140000 -0.172956
10.160000 -0.144739
10.180000 -0.198764
10.200000 -0.038439
10.220000 0.213271
10.240000 0.289282
10.260000 0.478565
10.280000 0.569839
10.300000 0.472305
10.320000 0.227555
10.340000 0.115052
10.360000 0.143268
10.380000 -0.041016
10.400000 -0.059794
10.420000 0.244779
10.440000 0.330423
10.460000 0.225692
10.480000 0.260813
10.500000 0.181035
10.520000 -0.009172
10.540000 -0.212599
10.560000 -0.269383
10.580000 -0.142498
10.600000 -0.116942
10.620000 0.141798
10.640000 0.400440
10.660000 0.426304
10.680000 0.565274
10.700000 0.665734
10.720000 0.659797
10.740000 0.627785
10.760000 0.877689
10.780000 1.227563
10.800000 1.420992
10.820000 1.800133
10.840000 2.292673
10.860000 2.578916
10.880000 2.732057
10.900000 2.948185
10.920000 3.266719
10.940000 3.450345
10.960000 3.761696
10.980000 4.306357
11.000000 4.767586
11.020000 5.255855
11.040000 5.805768
11.060000 6.169757
11.080000 6.508261
11.100000 6.844089
11.120000 7.233019
11.140000 7.621626
11.160000 7.988052
11.180000 8.592508
11.200000 9.321761
11.220000 9.759380
11.240000 10.227530
11.260000 10.778040
11.280000 11.242690
11.300000 11.503960
11.320000 11.808870
11.340000 12.370480
11.360000 12.867530
11.380000 13.366400
11.400000 13.915780
11.420000 14.525830
11.440000 15.070660
11.460000 15.303550
11.480000 15.375210
11.500000 15.386630
11.520000 15.298400
11.540000 15.194670
11.560000 15.097910
11.580000 15.070160
11.600000 15.245310
11.620000 15.344410
11.640000 15.469380
11.660000 15.499300
11.680000 15.510380
11.700000 15.743510
11.720000 15.548360
11.740000 15.101240
11.760000 14.715900
11.780000 14.251230
11.800000 13.713820
11.820000 12.943170
11.840000 12.281670
11.860000 11.800760
11.880000 11.139370
11.900000 10.341910
11.920000 9.619066
11.940000 9.109330
11.960000 8.715261
11.980000 8.034669
12.000000 7.431572
12.020000 7.194145
12.040000 6.829582
12.060000 6.299918
12.080000 5.823762
12.100000 5.254063
12.120000 4.840600
12.140000 4.318134
12.160000 3.717012
12.180000 3.276844
12.200000 2.877090
12.220000 2.639831
12.240000 2.372142
12.260000 1.943569
12.280000 1.648420
12.300000 1.386879
12.320000 1.052549
12.340000 0.623724
12.360000 0.134264
12.380000 -0.124182
12.400000 -0.221127
12.420000 -0.534971
12.440000 -0.848142
12.460000 -0.944667
12.480000 -1.046079
12.500000 -1.318319
12.520000 -1.744077
12.540000 -2.070048
12.560000 -2.286176
12.580000 -2.562742
12.600000 -2.915809
12.620000 -3.141781
12.640000 -3.239161
12.660000 -3.275415
12.680000 -3.492888
12.700000 -3.742078
12.720000 -3.914613
12.740000 -4.161786
12.760000 -4.390153
12.780000 -4.683468
12.800000 -4.941774
12.820000 -5.066390
12.840000 -5.174440
12.860000 -5.317106
12.880000 -5.558678
12.900000 -5.820429
12.920000 -6.011897
12.940000 -6.332182
12.960000 -6.809767
12.980000 -7.262146
13.000000 -7.492459
13.020000 -7.807759
13.040000 -8.232621
13.060000 -8.661446
13.080000 -8.994642
13.100000 -9.353675
13.120000 -9.963591
13.140000 -10.628110
13.160000 -11.281210
13.180000 -11.714450
13.200000 -11.939190
13.220000 -12.176110
13.240000 -12.390890
13.260000 -12.485350
13.280000 -12.470290
13.300000 -12.657010
13.320000 -12.996380
13.340000 -13.155000
13.360000 -13.012560
13.380000 -12.844690
13.400000 -12.773030
13.420000 -12.397880
13.440000 -11.723650
13.460000 -11.172590
13.480000 -11.040830
13.500000 -10.942310
13.520000 -10.510770
13.540000 -10.140520
13.560000 -10.018790
13.580000 -9.719120
13.600000 -9.082961
13.620000 -8.423263
13.640000 -7.646370
13.660000 -6.869785
13.680000 -6.165178
13.700000 -5.561955
13.720000 -5.243098
13.740000 -4.859266
13.760000 -4.541922
13.780000 -4.354949
13.800000 -3.876258
13.820000 -3.377696
13.840000 -2.964233
13.860000 -2.554410
13.880000 -2.080788
13.900000 -1.831920
13.920000 -1.746556
13.940000 -1.612712
13.960000 -1.440694
13.980000 -1.298392
14.000000 -1.133474
14.020000 -0.805810
14.040000 -0.519231
14.060000 -0.352983
14.080000 -0.245409
14.100000 -0.187701
14.120000 -0.287699
14.140000 -0.396953
14.160000 -0.409907
14.180000 -0.391436
14.200000 -0.310917
14.220000 -0.121731
14.240000 0.083754
14.260000 0.252383
14.280000 0.248252
14.300000 0.374100
14.320000 0.370431
14.340000 0.293609
14.360000 0.410817
14.380000 0.606178
14.400000 0.869217
14.420000 1.131710
14.440000 1.467763
14.460000 1.807513
14.480000 2.015939
14.500000 2.223412
14.520000 2.455196
14.540000 2.683591
14.560000 2.981387
14.580000 3.407173
14.600000 3.924920
14.620000 4.373867
14.640000 4.930879
14.660000 5.474560
14.680000 5.809437
14.700000 6.194991
14.720000 6.664258
14.740000 7.051367
14.760000 7.557085
14.780000 8.144932
14.800000 8.779116
14.820000 9.532722
14.840000 10.117890
14.860000 10.658730
14.880000 11.250020
14.900000 11.748030
14.920000 12.113490
14.940000 12.692250
14.960000 13.286370
14.980000 13.883250
15.000000 14.566920
15.020000 15.053020
15.040000 15.430240
15.060000 15.764780
15.080000 15.867350
15.100000 15.808950
15.120000 15.752320
15.140000 15.778530
15.160000 15.948320
15.180000 16.155870
15.200000 16.415380
15.220000 16.787150
15.240000 17.159090
15.260000 17.515680
15.280000 17.534570
15.300000 17.288300
15.320000 16.960610
15.340000 16.373040
15.360000 15.816940
15.380000 15.117570
15.400000 14.641000
15.420000 14.260890
15.440000 13.695320
15.460000 13.134330
15.480000 12.515630
15.500000 12.046510
15.520000 11.517960
15.540000 10.781080
15.560000 10.172910
15.580000 9.838121
15.600000 9.476764
15.620000 9.023489
15.640000 8.655663
15.660000 8.290973
15.680000 7.912910
15.700000 7.346558
15.720000 6.739820
15.740000 6.231442
15.760000 5.796329
15.780000 5.393032
15.800000 5.020753
15.820000 4.825070
15.840000 4.619066
15.860000 4.435916
15.880000 4.201066
15.900000 3.846235
15.920000 3.553340
15.940000 3.235926
15.960000 2.975407
15.980000 2.712088
16.000000 2.452157
16.020000 2.493383
16.040000 2.512344
16.060000 2.363614
16.080000 2.181346
16.100000 2.025279
16.120000 1.841793
16.140000 1.475031
16.160000 1.089994
16.180000 0.888010
16.200000 0.793641
16.220000 0.663633
16.240000 0.435729
16.260000 0.364620
16.280000 0.268346
16.300000 -0.055971
16.320000 -0.452911
16.340000 -0.813078
16.360000 -1.220127
16.380000 -1.587842
16.400000 -1.934495
16.420000 -2.287324
16.440000 -2.550167
16.460000 -2.855903
16.480000 -3.247241
16.500000 -3.731813
16.520000 -4.310334
16.540000 -4.869237
16.560000 -5.484880
16.580000 -6.106168
16.600000 -6.723702
16.620000 -7.229252
16.640000 -7.749169
16.660000 -8.478506
16.680000 -9.466038
16.700000 -9.975830
16.720000 -10.452150
16.740000 -11.331080
16.760000 -12.208080
16.780000 -12.716830
16.800000 -12.853310
16.820000 -13.112360
16.840000 -13.433090
16.860000 -13.416280
16.880000 -13.319920
16.900000 -13.443290
16.920000 -13.241720
16.940000 -12.980500
16.960000 -13.256650
16.980000 -13.777800
17.000000 -13.727160
17.020000 -12.926870
17.040000 -12.754010
17.060000 -12.690340
17.080000 -12.006110
17.100000 -11.178570
17.120000 -10.622350
17.140000 -10.062150
17.160000 -9.156353
17.180000 -8.544238
17.200000 -8.273791
17.220000 -7.718767
17.240000 -7.050723
17.260000 -6.903996
17.280000 -6.589662
17.300000 -5.992236
17.320000 -5.576771
17.340000 -5.345561
17.360000 -5.029057
17.380000 -4.413833
17.400000 -4.210798
17.420000 -4.163145
17.440000 -3.733059
17.460000 -3.498587
17.480000 -3.505449
17.500000 -3.339873
17.520000 -3.001019
17.540000 -2.972579
17.560000 -3.035594
17.580000 -2.779038
17.600000 -2.753160
17.620000 -2.999969
17.640000 -2.980252
17.660000 -2.907491
17.680000 -3.117723
17.700000 -3.262588
17.720000 -3.169802
17.740000 -3.155995
17.760000 -3.412788
17.780000 -3.457067
17.800000 -3.317369
17.820000 -3.492005
17.840000 -3.587186
17.860000 -3.455919
17.880000 -3.362838
17.900000 -3.355361
17.920000 -3.247745
17.940000 -2.947961
17.960000 -2.809537
17.980000 -2.707271
18.000000 -2.309253
18.020000 -1.990929
18.040000 -1.834931
18.060000 -1.392495
18.080000 -0.831478
18.100000 -0.443178
18.120000 -0.074274
18.140000 0.587371
18.160000 1.200789
18.180000 1.548744
18.200000 2.127601
18.220000 2.843566
18.240000 3.412858
18.260000 3.950462
18.280000 4.640169
18.300000 5.416390
18.320000 5.989268
18.340000 6.603245
18.360000 7.365939
18.380000 8.025819
18.400000 8.597647
18.420000 9.284624
18.440000 10.005660
18.460000 10.581590
18.480000 11.193140
18.500000 11.950010
18.520000 12.672710
18.540000 13.110090
18.560000 13.561670
18.580000 14.090500
18.600000 14.400490
18.620000 14.483740
18.640000 14.634180
18.660000 14.874180
18.680000 14.982170
18.700000 15.111270
18.720000 15.338640
18.740000 15.701880
18.760000 15.954160
18.780000 16.160430
18.800000 16.614920
18.820000 16.917240
18.840000 16.833420
18.860000 16.645650
18.880000 16.358380
18.900000 15.973400
18.920000 15.312680
18.940000 14.713240
18.960000 14.289240
18.980000 13.791660
19.000000 13.147190
19.020000 12.697580
19.040000 12.377490
19.060000 11.930220
19.080000 11.442160
19.100000 11.011980
19.120000 10.730720
19.140000 10.352280
19.160000 9.750152
19.180000 9.437457
19.200000 9.184766
19.220000 8.726744
19.240000 8.242591
19.260000 7.981261
19.280000 7.754154
19.300000 7.343925
19.320000 7.018053
19.340000 6.855586
19.360000 6.769381
19.380000 6.567089
19.400000 6.407030
19.420000 6.366784
19.440000 6.249170
19.460000 6.070347
19.480000 5.938898
19.500000 5.860717
19.520000 5.687005
19.540000 5.461957
19.560000 5.406434
19.580000 5.352171
19.600000 5.039854
19.620000 4.827857
19.640000 4.779951
19.660000 4.584170
19.680000 4.260776
19.700000 4.002148
19.720000 3.905049
19.740000 3.741643
19.760000 3.300285
19.780000 3.076414
19.800000 2.906063
19.820000 2.595594
19.840000 2.203794
19.860000 1.769115
19.880000 1.533705
19.900000 1.167489
19.920000 0.641242
19.940000 0.294771
19.960000 -0.039700
19.980000 -0.527815
20.000000 -0.963936
20.020000 -1.370453
20.040000 -1.878103
20.060000 -2.427540
20.080000 -2.902240
20.100000 -3.378298
20.120000 -3.944132
20.140000 -4.552466
20.160000 -5.030457
20.180000 -5.601304
20.200000 -6.281182
20.220000 -6.930546
20.240000 -7.829492
20.260000 -8.765533
20.280000 -9.390587
20.300000 -10.064160
20.320000 -10.773900
20.340000 -11.540300
20.360000 -12.077120
20.380000 -12.267920
20.400000 -12.638370
20.420000 -12.972440
20.440000 -13.080050
20.460000 -13.232370
20.480000 -13.351240
20.500000 -13.286350
20.520000 -13.184530
20.540000 -13.468470
20.560000 -14.086270
20.580000 -14.269600
20.600000 -13.604840
20.620000 -13.482570
20.640000 -13.574040
20.660000 -13.163120
20.680000 -12.334090
20.700000 -11.764960
20.720000 -11.314480
20.740000 -10.478090
20.760000 -9.921245
20.780000 -9.681661
20.800000 -9.339573
20.820000 -8.836852
20.840000 -8.641491
20.860000 -8.519410
20.880000 -7.997771
20.900000 -7.521348
20.920000 -7.359735
20.940000 -7.087118
20.960000 -6.465228
20.980000 -6.263482
21.000000 -6.233542
21.020000 -5.855718
21.040000 -5.523880
21.060000 -5.436135
21.080000 -5.296633
21.100000 -4.820925
21.120000 -4.627664
21.140000 -4.617638
21.160000 -4.342514
21.180000 -4.153706
21.200000 -4.246437
21.220000 -4.237937
21.240000 -3.986870
21.260000 -4.014303
21.280000 -4.084544
21.300000 -3.876454
21.320000 -3.773571
21.340000 -3.860154
21.360000 -3.904993
21.380000 -3.748295
21.400000 -3.762088
21.420000 -3.875614
21.440000 -3.727598
21.460000 -3.508922
21.480000 -3.472807
21.500000 -3.342660
21.520000 -3.003372
21.540000 -2.818738
21.560000 -2.699793
21.580000 -2.425761
21.600000 -2.073646
21.620000 -1.870948
21.640000 -1.548324
21.660000 -0.984829
21.680000 -0.568663
21.700000 -0.232414
21.720000 0.349398
21.740000 0.965518
21.760000 1.331146
21.780000 1.791381
21.800000 2.518757
21.820000 3.132987
21.840000 3.603598
21.860000 4.304271
21.880000 5.122249
21.900000 5.779707
21.920000 6.384681
21.940000 7.085577
21.960000 7.903402
21.980000 8.533021
22.000000 9.193224
22.020000 10.051140
22.040000 10.796220
22.060000 11.539390
22.080000 12.347510
22.100000 13.177690
22.120000 13.919880
22.140000 14.609070
22.160000 15.409070
22.180000 15.946680
22.200000 16.297440
22.220000 16.746890
22.240000 17.225400
22.260000 17.430910
22.280000 17.403710
22.300000 17.556900
22.320000 17.819000
22.340000 17.863390
22.360000 17.896900
22.380000 18.099390
22.400000 18.352620
22.420000 18.600910
22.440000 18.684310
22.460000 18.398630
22.480000 18.128320
22.500000 17.515280
22.520000 16.776540
22.540000 16.036670
22.560000 15.148800
22.580000 14.472630
22.600000 13.928420
22.620000 13.375270
22.640000 12.794610
22.660000 12.395500
22.680000 12.171180
22.700000 11.655270
22.720000 10.945400
22.740000 10.457570
22.760000 10.088400
22.780000 9.488541
22.800000 8.884030
22.820000 8.466197
22.840000 8.222931
22.860000 7.953254
22.880000 7.364356
22.900000 7.055204
22.920000 6.769367
22.940000 6.393405
22.960000 5.977155
22.980000 5.630375
23.000000 5.484768
23.020000 5.324766
23.040000 5.130273
23.060000 4.949588
23.080000 4.784054
23.100000 4.577252
23.120000 4.400530
23.140000 4.156129
23.160000 3.837931
23.180000 3.743156
23.200000 3.571349
23.220000 3.452488
23.240000 3.272097
23.260000 3.028284
23.280000 2.990713
23.300000 2.761478
23.320000 2.332149
23.340000 2.015028
23.360000 1.792053
23.380000 1.543199
23.400000 1.217733
23.420000 0.857580
23.440000 0.732684
23.460000 0.556816
23.480000 0.132934
23.500000 -0.243505
23.520000 -0.567570
23.540000 -0.912599
23.560000 -1.367751
23.580000 -1.855096
23.600000 -2.148480
23.620000 -2.498551
23.640000 -2.877958
23.660000 -3.211798
23.680000 -3.660984
23.700000 -4.091125
23.720000 -4.587237
23.740000 -5.143352
23.760000 -5.703039
23.780000 -6.368619
23.800000 -6.842829
23.820000 -7.385123
23.840000 -8.379754
23.860000 -9.043766
23.880000 -9.326718
23.900000 -9.908278
23.920000 -10.705350
23.940000 -11.427690
23.960000 -11.666130
23.980000 -11.834870
24.000000 -12.217640
24.020000 -12.387210
24.040000 -12.258630
24.060000 -12.294680
24.080000 -12.255480
24.100000 -11.987390
24.120000 -12.030250
24.140000 -12.570790
24.160000 -13.123370
24.180000 -12.662540
24.200000 -12.197830
24.220000 -12.421360
24.240000 -12.113470
24.260000 -11.391810
24.280000 -10.709700
24.300000 -10.351690
24.320000 -9.713071
24.340000 -9.011950
24.360000 -8.851500
24.380000 -8.673909
24.400000 -8.145912
24.420000 -7.878462
24.440000 -7.863422
24.460000 -7.472742
24.480000 -6.986195
24.500000 -6.766245
24.520000 -6.741249
24.540000 -6.292483
24.560000 -5.881386
24.580000 -6.008942
24.600000 -5.779161
24.620000 -5.330129
24.640000 -5.125848
24.660000 -5.095349
24.680000 -4.696337
24.700000 -4.322741
24.720000 -4.438395
24.740000 -4.291178
24.760000 -4.042996
24.780000 -4.154995
24.800000 -4.206317
24.820000 -3.996183
24.840000 -3.883512
24.860000 -3.988131
24.880000 -3.908382
24.900000 -3.668448
24.920000 -3.760954
24.940000 -3.969730
24.960000 -3.791201
24.980000 -3.757663
25.000000 -3.872085
25.020000 -3.799421
25.040000 -3.595392
25.060000 -3.388128
25.080000 -3.400479
25.100000 -3.177098
25.120000 -2.877832
25.140000 -2.853746
25.160000 -2.713838
25.180000 -2.360701
25.200000 -2.133413
25.220000 -1.945726
25.240000 -1.461601
25.260000 -0.978681
25.280000 -0.732096
25.300000 -0.317568
25.320000 0.288707
25.340000 0.633092
25.360000 0.967086
25.380000 1.528691
25.400000 2.215921
25.420000 2.698141
25.440000 3.223589
25.460000 4.026668
25.480000 4.725646
25.500000 5.263417
25.520000 5.899898
25.540000 6.621702
25.560000 7.286708
25.580000 7.905880
25.600000 8.654038
25.620000 9.453953
25.640000 10.159220
25.660000 10.892700
25.680000 11.730410
25.700000 12.466990
25.720000 13.010230
25.740000 13.823930
25.760000 14.681980
25.780000 15.149400
25.800000 15.592090
25.820000 16.249880
25.840000 16.724770
25.860000 16.907230
25.880000 17.010520
25.900000 17.212210
25.920000 17.428170
25.940000 17.459030
25.960000 17.514070
25.980000 17.888030
26.000000 18.158990
26.020000 18.376240
26.040000 18.708360
26.060000 18.688280
26.080000 18.395590
26.100000 17.805310
26.120000 17.150100
26.140000 16.448350
26.160000 15.467330
26.180000 14.744510
26.200000 14.271980
26.220000 13.692770
26.240000 13.043020
26.260000 12.685930
26.280000 12.390330
26.300000 11.868650
26.320000 11.208590
26.340000 10.607910
26.360000 10.270730
26.380000 9.737689
26.400000 9.045796
26.420000 8.724293
26.440000 8.499343
26.460000 8.144652
26.480000 7.652013
26.500000 7.393749
26.520000 7.083687
26.540000 6.655968
26.560000 6.247588
26.580000 5.957102
26.600000 5.758366
26.620000 5.520925
26.640000 5.383398
26.660000 5.275516
26.680000 5.143114
26.700000 4.939421
26.720000 4.744340
26.740000 4.644426
26.760000 4.265341
26.780000 4.007581
26.800000 3.918086
26.820000 3.748589
26.840000 3.541059
26.860000 3.326360
26.880000 3.310256
26.900000 3.166623
26.920000 2.731889
26.940000 2.401297
26.960000 2.240469
26.980000 1.912594
27.000000 1.526451
27.020000 1.252895
27.040000 1.084365
27.060000 0.906466
27.080000 0.539984
27.100000 0.204519
27.120000 -0.043719
27.140000 -0.460151
27.160000 -0.920371
27.180000 -1.379136
27.200000 -1.802611
27.220000 -2.240231
27.240000 -2.620506
27.260000 -2.945804
27.280000 -3.421344
27.300000 -3.890709
27.320000 -4.335624
27.340000 -4.860470
27.360000 -5.593771
27.380000 -6.270889
27.400000 -6.838320
27.420000 -7.671548
27.440000 -8.564893
27.460000 -9.004305
27.480000 -9.388109
27.500000 -10.087630
27.520000 -10.881680
27.540000 -11.322870
27.560000 -11.498400
27.580000 -11.909360
27.600000 -12.308890
27.620000 -12.335860
27.640000 -12.338490
27.660000 -12.412600
27.680000 -12.209750
27.700000 -12.061520
27.720000 -12.447510
27.740000 -13.153730
27.760000 -13.029990
27.780000 -12.529430
27.800000 -12.642350
27.820000 -12.668200
27.840000 -12.089690
27.860000 -11.240610
27.880000 -10.839120
27.900000 -10.319510
27.920000 -9.452552
27.940000 -9.044592
27.960000 -8.991870
27.980000 -8.567077
28.000000 -8.112640
28.020000 -8.087336
28.040000 -7.872454
28.060000 -7.300865
28.080000 -6.898016
28.100000 -6.871858
28.120000 -6.560241
28.140000 -6.039120
28.160000 -6.092571
28.180000 -6.065586
28.200000 -5.713219
28.220000 -5.434272
28.240000 -5.421277
28.260000 -5.148394
28.280000 -4.659396
28.300000 -4.630059
28.320000 -4.616392
28.340000 -4.355607
28.360000 -4.294902
28.380000 -4.487463
28.400000 -4.412839
28.420000 -4.153300
28.440000 -4.242824
28.460000 -4.232307
28.480000 -3.950924
28.500000 -3.880347
28.520000 -4.040475
28.540000 -4.032213
28.560000 -3.868416
28.580000 -3.988719
28.600000 -4.062419
28.620000 -3.807375
28.640000 -3.583167
28.660000 -3.582299
28.680000 -3.360892
28.700000 -3.043170
28.720000 -2.982395
28.740000 -2.920696
28.760000 -2.614933
28.780000 -2.364776
28.800000 -2.218469
28.820000 -1.814318
28.840000 -1.289696
28.860000 -0.889872
28.880000 -0.556522
28.900000 0.023554
28.920000 0.574502
28.940000 0.787409
28.960000 1.316064
28.980000 1.982919
29.000000 2.464312
29.020000 2.980350
29.040000 3.717726
29.060000 4.497755
29.080000 5.037067
29.100000 5.641900
29.120000 6.397018
29.140000 7.032631
29.160000 7.590329
29.180000 8.298745
29.200000 9.137855
29.220000 9.826820
29.240000 10.534580
29.260000 11.400640
29.280000 12.174080
29.300000 12.755480
29.320000 13.425700
29.340000 14.246910
29.360000 14.882890
29.380000 15.330660
29.400000 15.914880
29.420000 16.497350
29.440000 16.786650
29.460000 16.985130
29.480000 17.190630
29.500000 17.316880
29.520000 17.308450
29.540000 17.285840
29.560000 17.484220
29.580000 17.704720
29.600000 17.844910
29.620000 18.087290
29.640000 18.487100
29.660000 18.516150
29.680000 18.072580
29.700000 17.607170
29.720000 16.971180
29.740000 16.154030
29.760000 15.239560
29.780000 14.558220
29.800000 14.006010
29.820000 13.447590
29.840000 12.906190
29.860000 12.544080
29.880000 12.282410
29.900000 11.724600
29.920000 11.150430
29.940000 10.673280
29.960000 10.170270
29.980000 9.654691
30.000000 9.112256
30.020000 8.788429
30.040000 8.528274
30.060000 8.124543
30.080000 7.794890
30.100000 7.495988
30.120000 7.069305
30.140000 6.642105
30.160000 6.330530
30.180000 6.018535
30.200000 5.729701
30.220000 5.561465
30.240000 5.582316
30.260000 5.427187
30.280000 5.192336
30.300000 5.075254
30.320000 4.860036
30.340000 4.700874
30.360000 4.352694
30.380000 3.989405
30.400000 4.078915
30.420000 3.935548
30.440000 3.522771
30.460000 3.532139
30.480000 3.413096
30.500000 3.051249
30.520000 2.673411
30.540000 2.271696
30.560000 2.010603
30.580000 1.642049
30.600000 1.238388
30.620000 1.005610
30.640000 0.796904
30.660000 0.549604
30.680000 0.133032
30.700000 -0.192140
30.720000 -0.548904
30.740000 -1.155012
30.760000 -1.605388
30.780000 -1.993701
30.800000 -2.567755
30.820000 -2.951938
30.840000 -3.272055
30.860000 -3.651588
30.880000 -4.087849
30.900000 -4.717300
30.920000 -5.115542
30.940000 -5.726957
30.960000 -6.489202
30.980000 -7.147962
31.000000 -7.864907
31.020000 -8.516385
31.040000 -9.101698
31.060000 -9.478234
31.080000 -9.900856
31.100000 -10.593570
31.120000 -11.099810
31.140000 -11.270670
31.160000 -11.548720
31.180000 -11.849030
31.200000 -11.944960
31.220000 -11.949800
31.240000 -11.840240
31.260000 -11.688200
31.280000 -11.486150
31.300000 -11.558410
31.320000 -12.132700
31.340000 -12.370770
31.360000 -11.889680
31.380000 -11.694100
31.400000 -11.857590
31.420000 -11.474120
31.440000 -10.689080
31.460000 -10.148550
31.480000 -9.772753
31.500000 -9.132155
31.520000 -8.619212
31.540000 -8.560202
31.560000 -8.382625
31.580000 -7.975351
31.600000 -7.860622
31.620000 -7.761268
31.640000 -7.333717
31.660000 -6.944661
31.680000 -6.769073
31.700000 -6.707836
31.720000 -6.298840
31.740000 -6.168371
31.760000 -6.292063
31.780000 -6.080276
31.800000 -5.758604
31.820000 -5.700658
31.840000 -5.605001
31.860000 -5.203539
31.880000 -5.004369
31.900000 -5.148786
31.920000 -4.998656
31.940000 -4.847293
31.960000 -5.051490
31.980000 -5.082522
32.000000 -4.814693
32.020000 -4.815324
32.040000 -4.825756
32.060000 -4.622385
32.080000 -4.485852
32.100000 -4.554931
32.120000 -4.659676
32.140000 -4.515764
32.160000 -4.548293
32.180000 -4.639189
32.200000 -4.474664
32.220000 -4.230809
32.240000 -4.100550
32.260000 -3.950042
32.280000 -3.654585
32.300000 -3.440389
32.320000 -3.401222
32.340000 -3.189197
32.360000 -2.930835
32.380000 -2.664659
32.400000 -2.408061
32.420000 -1.837620
32.440000 -1.327561
32.460000 -1.044623
32.480000 -0.421977
32.500000 0.091274
32.520000 0.438165
32.540000 0.888205
32.560000 1.566122
32.580000 2.156981
32.600000 2.688226
32.620000 3.435992
32.640000 4.217058
32.660000 4.893070
32.680000 5.398088
32.700000 6.161397
32.720000 6.848192
32.740000 7.285643
32.760000 8.075489
32.780000 8.811296
32.800000 9.539975
32.820000 10.334480
32.840000 11.022580
32.860000 11.844790
32.880000 12.453390
32.900000 12.968460
32.920000 13.698540
32.940000 14.375840
32.960000 14.862080
32.980000 15.417410
33.000000 16.036670
33.020000 16.397470
33.040000 16.571530
33.060000 16.753010
33.080000 16.886320
33.100000 16.700650
33.120000 16.661540
33.140000 16.800520
33.160000 16.846160
33.180000 17.102440
33.200000 17.253440
33.220000 17.645190
33.240000 18.059180
33.260000 17.633210
33.280000 17.319480
33.300000 16.872290
33.320000 16.033280
33.340000 15.264960
33.360000 14.498440
33.380000 13.915850
33.400000 13.544250
33.420000 12.947570
33.440000 12.531250
33.460000 12.259110
33.480000 11.716080
33.500000 11.298980
33.520000 10.744000
33.540000 10.188980
33.560000 9.850948
33.580000 9.384426
33.600000 9.109120
33.620000 8.726310
33.640000 8.421246
33.660000 8.239819
33.680000 7.838300
33.700000 7.423212
33.720000 7.007621
33.740000 6.719137
33.760000 6.622304
33.780000 6.325152
33.800000 6.068625
33.820000 6.193409
33.840000 6.080192
33.860000 5.850018
33.880000 5.625754
33.900000 5.311925
33.920000 5.150732
33.940000 4.830615
33.960000 4.439375
33.980000 4.279373
34.000000 4.250400
34.020000 4.132631
34.040000 3.954145
34.060000 3.718538
34.080000 3.486320
34.100000 3.279042
34.120000 2.897983
34.140000 2.440969
34.160000 2.136017
34.180000 1.850937
34.200000 1.624334
34.220000 1.320321
34.240000 0.961863
34.260000 0.679093
34.280000 0.360307
34.300000 -0.195389
34.320000 -0.770731
34.340000 -1.291600
34.360000 -1.769269
34.380000 -2.170676
34.400000 -2.668551
34.420000 -3.108845
34.440000 -3.441999
34.460000 -3.815021
34.480000 -4.383208
34.500000 -5.044699
34.520000 -5.514428
34.540000 -6.084715
34.560000 -6.757800
34.580000 -7.287226
34.600000 -7.979762
34.620000 -8.563493
34.640000 -9.073327
34.660000 -9.633574
34.680000 -10.060540
34.700000 -10.715660
34.720000 -11.354180
34.740000 -11.570280
34.760000 -11.880510
34.780000 -12.018240
34.800000 -12.050290
34.820000 -12.110280
34.840000 -11.996520
34.860000 -11.964210
34.880000 -11.741320
34.900000 -11.616450
34.920000 -11.878340
34.940000 -12.234490
34.960000 -12.053940
34.980000 -11.558620
35.000000 -11.443660
35.020000 -11.301350
35.040000 -10.724880
35.060000 -10.072790
35.080000 -9.731975
35.100000 -9.280451
35.120000 -8.801956
35.140000 -8.486698
35.160000 -8.390579
35.180000 -8.168402
35.200000 -7.713320
35.220000 -7.739114
35.240000 -7.628404
35.260000 -7.201581
35.280000 -7.034689
35.300000 -7.029046
35.320000 -6.877291
35.340000 -6.477621
35.360000 -6.429702
35.380000 -6.491036
35.400000 -6.131192
35.420000 -5.937399
35.440000 -5.893821
35.460000 -5.816438
35.480000 -5.431850
35.500000 -5.380051
35.520000 -5.402065
35.540000 -5.126506
35.560000 -4.987005
35.580000 -5.054711
35.600000 -4.889499
35.620000 -4.631669
35.640000 -4.640015
35.660000 -4.520889
35.680000 -4.351434
35.700000 -4.203853
35.720000 -4.160750
35.740000 -4.187049
35.760000 -3.927048
35.780000 -3.809168
35.800000 -3.876972
35.820000 -3.575648
35.840000 -3.333809
35.860000 -3.287388
35.880000 -3.042105
35.900000 -2.812016
35.920000 -2.556469
35.940000 -2.385123
35.960000 -2.178462
35.980000 -1.722610
36.000000 -1.562524
36.020000 -1.232226
36.040000 -0.753815
36.060000 -0.439664
36.080000 -0.118777
36.100000 0.383244
36.120000 0.835203
36.140000 1.142339
36.160000 1.689002
36.180000 2.217153
36.200000 2.729438
36.220000 3.240519
36.240000 3.832161
36.260000 4.480615
36.280000 5.020151
36.300000 5.616652
36.320000 6.206404
36.340000 6.905004
36.360000 7.472084
36.380000 8.057089
36.400000 8.864299
36.420000 9.457734
36.440000 10.150400
36.460000 10.930730
36.480000 11.522350
36.500000 12.227490
36.520000 12.935010
36.540000 13.625890
36.560000 14.239180
36.580000 14.606740
36.600000 15.080740
36.620000 15.555150
36.640000 15.581560
36.660000 15.739490
36.680000 15.918630
36.700000 16.050060
36.720000 16.278020
36.740000 16.353300
36.760000 16.609570
36.780000 17.041980
36.800000 17.319690
36.820000 17.618270
36.840000 17.720380
36.860000 17.598070
36.880000 17.195430
36.900000 16.676890
36.920000 16.043120
36.940000 15.312160
36.960000 14.757620
36.980000 14.277930
37.000000 13.760130
37.020000 13.355300
37.040000 12.960860
37.060000 12.630410
37.080000 12.347230
37.100000 11.781350
37.120000 11.369220
37.140000 11.101910
37.160000 10.572680
37.180000 10.154700
37.200000 9.831147
37.220000 9.515273
37.240000 9.217674
37.260000 8.762704
37.280000 8.457137
37.300000 8.146948
37.320000 7.769754
37.340000 7.396242
37.360000 7.118639
37.380000 6.886085
37.400000 6.656738
37.420000 6.410405
37.440000 6.204584
37.460000 6.006044
37.480000 5.683840
37.500000 5.435631
37.520000 5.070185
37.540000 4.736275
37.560000 4.402532
37.580000 4.068678
37.600000 3.947031
37.620000 3.658323
37.640000 3.434844
37.660000 3.292864
37.680000 3.015233
37.700000 2.714202
37.720000 2.373164
37.740000 1.984571
37.760000 1.658923
37.780000 1.257614
37.800000 0.973626
37.820000 0.740414
37.840000 0.391114
37.860000 0.114127
37.880000 -0.273948
37.900000 -0.614062
37.920000 -1.166354
37.940000 -1.730774
37.960000 -2.103334
37.980000 -2.607595
38.000000 -3.064371
38.020000 -3.486558
38.040000 -3.799267
38.060000 -4.184724
38.080000 -4.685554
38.100000 -5.121087
38.120000 -5.643511
38.140000 -6.135813
38.160000 -6.695892
38.180000 -7.248941
38.200000 -7.762612
38.220000 -8.381869
38.240000 -9.044732
38.260000 -9.420569
38.280000 -9.845067
38.300000 -10.449490
38.320000 -10.912150
38.340000 -11.349060
38.360000 -11.590000
38.380000 -11.733420
38.400000 -11.935740
38.420000 -11.850870
38.440000 -11.888770
38.460000 -11.832820
38.480000 -11.594870
38.500000 -11.528370
38.520000 -11.435740
38.540000 -11.809300
38.560000 -11.974140
38.580000 -11.614850
38.600000 -11.325810
38.620000 -11.229480
38.640000 -10.970180
38.660000 -10.386830
38.680000 -9.800102
38.700000 -9.423523
38.720000 -9.048149
38.740000 -8.596442
38.760000 -8.403266
38.780000 -8.275121
38.800000 -7.988514
38.820000 -7.869486
38.840000 -7.680888
38.860000 -7.526585
38.880000 -7.167119
38.900000 -6.869057
38.920000 -6.915240
38.940000 -6.450077
38.960000 -6.215632
38.980000 -6.203393
39.000000 -5.984297
39.020000 -5.746281
39.040000 -5.474854
39.060000 -5.421697
39.080000 -5.138885
39.100000 -4.881896
39.120000 -4.752126
39.140000 -4.631319
39.160000 -4.476288
39.180000 -4.341394
39.200000 -4.401762
39.220000 -4.115463
39.240000 -4.063777
39.260000 -3.961160
39.280000 -3.724391
39.300000 -3.646239
39.320000 -3.502046
39.340000 -3.527868
39.360000 -3.440781
39.380000 -3.331961
39.400000 -3.370974
39.420000 -3.318196
39.440000 -3.095290
39.460000 -2.952764
39.480000 -2.854642
39.500000 -2.686840
39.520000 -2.523687
39.540000 -2.381595
39.560000 -2.337358
39.580000 -2.120166
39.600000 -1.928572
39.620000 -1.650591
39.640000 -1.292021
39.660000 -0.982504
39.680000 -0.491532
39.700000 -0.210835
39.720000 0.359228
39.740000 0.700280
39.760000 0.992713
39.780000 1.731698
39.800000 2.116455
39.820000 2.691503
39.840000 3.386924
39.860000 3.983342
39.880000 4.733572
39.900000 5.371733
39.920000 5.905262
39.940000 6.683037
39.960000 7.341755
39.980000 7.911748
40.000000 8.682395
40.020000 9.367174
40.040000 10.167020
40.060000 10.943270
40.080000 11.611700
40.100000 12.362100
40.120000 13.074690
40.140000 13.813590
40.160000 14.300240
40.180000 14.655700
40.200000 15.169010
40.220000 15.528120
40.240000 15.780100
40.260000 15.814700
40.280000 15.969240
40.300000 16.306160
40.320000 16.385840
40.340000 16.481330
40.360000 16.778270
40.380000 17.063930
40.400000 17.442420
40.420000 17.692900
40.440000 17.632880
40.460000 17.605660
40.480000 17.192910
40.500000 16.561520
40.520000 15.988820
40.540000 15.248530
40.560000 14.709050
40.580000 14.291960
40.600000 13.726280
40.620000 13.281300
40.640000 13.061050
40.660000 12.807630
40.680000 12.342520
40.700000 11.844960
40.720000 11.480760
40.740000 11.206250
40.760000 10.724040
40.780000 10.191550
40.800000 9.960454
40.820000 9.795873
40.840000 9.477352
40.860000 9.047435
40.880000 8.814615
40.900000 8.552444
40.920000 8.202612
40.940000 7.776965
40.960000 7.468737
40.980000 7.382295
41.000000 7.061772
41.020000 6.834889
41.040000 6.658027
41.060000 6.423456
41.080000 6.130590
41.100000 5.761013
41.120000 5.461061
41.140000 4.895129
41.160000 4.598131
41.180000 4.249293
41.200000 3.949649
41.220000 3.678684
41.240000 3.198299
41.260000 3.080404
41.280000 2.845064
41.300000 2.242219
41.320000 1.720033
41.340000 1.482928
41.360000 1.048250
41.380000 0.522606
41.400000 0.118441
41.420000 -0.204575
41.440000 -0.333084
41.460000 -0.837051
41.480000 -1.349420
41.500000 -1.566991
41.520000 -1.955304
41.540000 -2.436516
41.560000 -2.943732
41.580000 -3.237914
41.600000 -3.523793
41.620000 -3.869368
41.640000 -4.164293
41.660000 -4.515259
41.680000 -4.692136
41.700000 -5.079637
41.720000 -5.527185
41.740000 -5.861851
41.760000 -6.324942
41.780000 -6.716841
41.800000 -7.103544
41.820000 -7.533013
41.840000 -8.153964
41.860000 -8.658631
41.880000 -8.905847
41.900000 -9.299986
41.920000 -9.883002
41.940000 -10.505590
41.960000 -10.623880
41.980000 -10.871540
42.000000 -11.294110
42.020000 -11.347220
42.040000 -11.256760
42.060000 -11.367750
42.080000 -11.500640
42.100000 -11.270360
42.120000 -11.029330
42.140000 -11.501400
42.160000 -11.972230
42.180000 -11.815440
42.200000 -11.379650
42.220000 -11.379580
42.240000 -11.402480
42.260000 -10.855210
42.280000 -10.199830
42.300000 -9.911387
42.320000 -9.513397
42.340000 -8.840241
42.360000 -8.713959
42.380000 -8.582957
42.400000 -8.168556
42.420000 -7.988962
42.440000 -7.815923
42.460000 -7.696852
42.480000 -7.140695
42.500000 -6.845756
42.520000 -6.857883
42.540000 -6.338568
42.560000 -6.036655
42.580000 -5.928353
42.600000 -5.826633
42.620000 -5.511795
42.640000 -5.182534
42.660000 -5.282630
42.680000 -4.976138
42.700000 -4.650686
42.720000 -4.668456
42.740000 -4.529431
42.760000 -4.445551
42.780000 -4.345749
42.800000 -4.373853
42.820000 -4.417936
42.840000 -4.071003
42.860000 -4.177624
42.880000 -4.219060
42.900000 -3.773137
42.920000 -3.932621
42.940000 -3.988313
42.960000 -3.806535
42.980000 -3.841025
43.000000 -3.741713
43.020000 -3.856205
43.040000 -3.549489
43.060000 -3.293998
43.080000 -3.326164
43.100000 -3.001944
43.120000 -2.764517
43.140000 -2.555110
43.160000 -2.451779
43.180000 -2.132083
43.200000 -1.772448
43.220000 -1.640788
43.240000 -1.168161
43.260000 -0.682258
43.280000 -0.381942
43.300000 0.082354
43.320000 0.583604
43.340000 1.000302
43.360000 1.336929
43.380000 1.757591
43.400000 2.457017
43.420000 2.908289
43.440000 3.290063
43.460000 4.110968
43.480000 4.745755
43.500000 5.234878
43.520000 5.766908
43.540000 6.423008
43.560000 7.102171
43.580000 7.519374
43.600000 8.176243
43.620000 8.979659
43.640000 9.695329
43.660000 10.332120
43.680000 11.127440
43.700000 11.917210
43.720000 12.554550
43.740000 13.256230
43.760000 13.893010
43.780000 14.325530
43.800000 14.733840
43.820000 15.232440
43.840000 15.608910
43.860000 15.743160
43.880000 15.912960
43.900000 16.260600
43.920000 16.546420
43.940000 16.613130
43.960000 16.808830
43.980000 17.260470
44.000000 17.615790
44.020000 17.896530
44.040000 18.006890
44.060000 18.054950
44.080000 17.795770
44.100000 17.188640
44.120000 16.545640
44.140000 15.931460
44.160000 15.307260
44.180000 14.698350
44.200000 14.265500
44.220000 13.767690
44.240000 13.429980
44.260000 13.192210
44.280000 12.881910
44.300000 12.332570
44.320000 11.888820
44.340000 11.522320
44.360000 11.060610
44.380000 10.506430
44.400000 9.947319
44.420000 9.824720
44.440000 9.438773
44.460000 8.923981
44.480000 8.660928
44.500000 8.326206
44.520000 8.068656
44.540000 7.586352
44.560000 7.123036
44.580000 6.987652
44.600000 6.579608
44.620000 6.258468
44.640000 6.010469
44.660000 5.671013
44.680000 5.335577
44.700000 5.032558
44.720000 4.658990
44.740000 4.255973
44.760000 3.816673
44.780000 3.511610
44.800000 3.333305
44.820000 2.910656
44.840000 2.652294
44.860000 2.406380
44.880000 2.188712
44.900000 1.894431
44.920000 1.263510
44.940000 1.153009
44.960000 0.867985
44.980000 0.409627
45.000000 0.183024
45.020000 -0.187519
45.040000 -0.256080
45.060000 -0.578577
45.080000 -1.053711
45.100000 -1.363634
45.120000 -1.610765
45.140000 -1.985887
45.160000 -2.435311
45.180000 -2.775943
45.200000 -3.022375
45.220000 -3.193748
45.240000 -3.697463
45.260000 -3.933448
45.280000 -4.267554
45.300000 -4.645967
45.320000 -4.990212
45.340000 -5.634731
45.360000 -5.865268
45.380000 -6.376195
45.400000 -6.854116
45.420000 -7.101247
45.440000 -8.036924
45.460000 -8.548817
45.480000 -9.027550
45.500000 -9.483472
45.520000 -9.961505
45.540000 -10.666830
45.560000 -11.071510
45.580000 -11.262740
45.600000 -11.523640
45.620000 -11.797290
45.640000 -11.625990
45.660000 -11.758430
45.680000 -11.850660
45.700000 -11.574850
45.720000 -11.415640
45.740000 -11.442430
45.760000 -12.110520
45.780000 -12.044100
45.800000 -11.565660
45.820000 -11.423340
45.840000 -11.306570
45.860000 -11.088230
45.880000 -10.258530
45.900000 -9.806291
45.920000 -9.419406
45.940000 -8.676318
45.960000 -8.312272
45.980000 -8.082813
46.000000 -7.793069
46.020000 -7.556496
46.040000 -7.363922
46.060000 -7.306354
46.080000 -7.008531
46.100000 -6.557398
46.120000 -6.602055
46.140000 -6.268075
46.160000 -5.852455
46.180000 -5.908720
46.200000 -5.697424
46.220000 -5.590088
46.240000 -5.361427
46.260000 -5.319613
46.280000 -5.275446
46.300000 -4.885494
46.320000 -4.888603
46.340000 -4.789039
46.360000 -4.645365
46.380000 -4.653837
46.400000 -4.620733
46.420000 -4.711853
46.440000 -4.526840
46.460000 -4.491412
46.480000 -4.585514
46.500000 -4.245387
46.520000 -4.123711
46.540000 -4.205127
46.560000 -4.009542
46.580000 -3.969576
46.600000 -3.871287
46.620000 -3.884548
46.640000 -3.768698
46.660000 -3.358721
46.680000 -3.380483
46.700000 -3.109966
46.720000 -2.726595
46.740000 -2.608365
46.760000 -2.379214
46.780000 -2.131410
46.800000 -1.866943
46.820000 -1.664594
46.840000 -1.321764
46.860000 -0.868055
46.880000 -0.540404
46.900000 -0.167816
46.920000 0.282294
46.940000 0.768967
46.960000 1.113940
46.980000 1.489272
47.000000 2.080592
47.020000 2.651607
47.040000 3.060856
47.060000 3.785950
47.080000 4.524026
47.100000 5.090826
47.120000 5.774330
47.140000 6.424576
47.160000 7.143495
47.180000 7.745374
47.200000 8.373915
47.220000 9.182847
47.240000 9.897607
47.260000 10.527590
47.280000 11.372370
47.300000 12.183810
47.320000 12.818950
47.340000 13.489120
47.360000 14.136780
47.380000 14.654590
47.400000 15.035510
47.420000 15.384420
47.440000 15.791440
47.460000 16.088790
47.480000 16.156190
47.500000 16.354900
47.520000 16.733040
47.540000 16.915390
47.560000 17.049030
47.580000 17.266320
47.600000 17.645050
47.620000 18.031380
47.640000 18.053000
47.660000 17.934500
47.680000 17.711370
47.700000 17.405890
47.720000 16.605510
47.740000 15.927130
47.760000 15.352160
47.780000 14.728910
47.800000 14.303740
47.820000 13.602910
47.840000 13.248320
47.860000 13.151610
47.880000 12.747730
47.900000 12.276050
47.920000 11.858930
47.940000 11.508190
47.960000 10.997320
47.980000 10.474900
48.000000 9.933652
48.020000 9.615453
48.040000 9.312953
48.060000 8.833533
48.080000 8.451186
48.100000 8.088834
48.120000 7.778156
48.140000 7.375027
48.160000 6.972094
48.180000 6.642511
48.200000 6.319523
48.220000 6.248862
48.240000 5.887911
48.260000 5.630305
48.280000 5.462279
48.300000 5.131982
48.320000 4.933106
48.340000 4.516646
48.360000 4.149688
48.380000 3.856331
48.400000 3.607141
48.420000 3.257183
48.440000 2.899607
48.460000 2.620030
48.480000 2.330174
48.500000 2.114144
48.520000 1.553786
48.540000 1.198870
48.560000 0.985809
48.580000 0.564700
48.600000 0.232862
48.620000 -0.232526
48.640000 -0.367966
48.660000 -0.586951
48.680000 -1.083146
48.700000 -1.258959
48.720000 -1.714908
48.740000 -1.951439
48.760000 -2.264512
48.780000 -2.746676
48.800000 -3.037036
48.820000 -3.363707
48.840000 -3.667356
48.860000 -3.985330
48.880000 -4.344488
48.900000 -4.828599
48.920000 -5.039938
48.940000 -5.485385
48.960000 -6.044175
48.980000 -6.438692
49.000000 -6.980426
49.020000 -7.224239
49.040000 -8.108019
49.060000 -8.898901
49.080000 -9.038305
49.100000 -9.575586
49.120000 -10.037460
49.140000 -10.758580
49.160000 -11.141920
49.180000 -11.137900
49.200000 -11.513410
49.220000 -11.655840
49.240000 -11.598270
49.260000 -11.617670
49.280000 -11.449960
49.300000 -11.118110
49.320000 -11.021990
49.340000 -11.200690
49.360000 -11.884150
49.380000 -11.623280
49.400000 -11.014880
49.420000 -11.278630
49.440000 -11.027020
49.460000 -10.671550
49.480000 -9.905449
49.500000 -9.414463
49.520000 -9.105549
49.540000 -8.220004
49.560000 -8.034964
49.580000 -8.037764
49.600000 -7.651957
49.620000 -7.488048
49.640000 -7.511742
49.660000 -7.407305
49.680000 -7.013418
49.700000 -6.756106
49.720000 -6.804320
49.740000 -6.605248
49.760000 -6.253371
49.780000 -6.378267
49.800000 -6.413346
49.820000 -6.200439
49.840000 -5.970027
49.860000 -6.018255
49.880000 -5.842526
49.900000 -5.353417
49.920000 -5.410537
49.940000 -5.259804
49.960000 -5.018302
49.980000 -5.037753
50.000000 -5.022181
50.020000 -4.952122
50.040000 -4.720591
50.060000 -4.680233
50.080000 -4.620439
50.100000 -4.208194
50.120000 -4.076996
50.140000 -4.150724
50.160000 -3.984280
50.180000 -3.831895
50.200000 -3.890219
50.220000 -3.871595
50.240000 -3.685336
50.260000 -3.432477
50.280000 -3.321388
50.300000 -3.085026
50.320000 -2.750457
50.340000 -2.617901
50.360000 -2.409587
50.380000 -2.173925
50.400000 -1.871172
50.420000 -1.708439
50.440000 -1.344183
50.460000 -0.751519
50.480000 -0.497806
50.500000 -0.100922
50.520000 0.538247
50.540000 1.010189
50.560000 1.297132
50.580000 1.793733
50.600000 2.421882
50.620000 2.932557
50.640000 3.429410
50.660000 4.087036
50.680000 4.872261
50.700000 5.474658
50.720000 6.037257
50.740000 6.809151
50.760000 7.447200
50.780000 8.001706
50.800000 8.799561
50.820000 9.465393
50.840000 10.189020
50.860000 10.916800
50.880000 11.725910
50.900000 12.530420
50.920000 13.053730
50.940000 13.824850
50.960000 14.622190
50.980000 15.114280
51.000000 15.336180
51.020000 15.882270
51.040000 16.420990
51.060000 16.552130
51.080000 16.500730
51.100000 16.686590
51.120000 17.021130
51.140000 16.947880
51.160000 16.966620
51.180000 17.200430
51.200000 17.476190
51.220000 17.723090
51.240000 17.810340
51.260000 17.909820
51.280000 17.730280
51.300000 17.285390
51.320000 16.715870
51.340000 16.002000
51.360000 15.218860
51.380000 14.552310
51.400000 14.076720
51.420000 13.510550
51.440000 12.891820
51.460000 12.621580
51.480000 12.435930
51.500000 12.011470
51.520000 11.408670
51.540000 11.019500
51.560000 10.817260
51.580000 10.305550
51.600000 9.786098
51.620000 9.434110
51.640000 9.353408
51.660000 9.059506
51.680000 8.586696
51.700000 8.326458
51.720000 7.976555
51.740000 7.650557
51.760000 7.193823
51.780000 6.772882
51.800000 6.475157
51.820000 6.184111
51.840000 6.013115
51.860000 5.593771
51.880000 5.326040
51.900000 5.069107
51.920000 4.661777
51.940000 4.432780
51.960000 3.831097
51.980000 3.419930
52.000000 3.318812
52.020000 3.040775
52.040000 2.667305
52.060000 2.431769
52.080000 2.268181
52.100000 1.989444
52.120000 1.651179
52.140000 1.138222
52.160000 0.908538
52.180000 0.663466
52.200000 0.333476
52.220000 0.048592
52.240000 -0.303075
52.260000 -0.272702
52.280000 -0.599470
52.300000 -0.922836
52.320000 -1.186155
52.340000 -1.611129
52.360000 -1.766063
52.380000 -2.245594
52.400000 -2.680552
52.420000 -2.859319
52.440000 -3.198747
52.460000 -3.415729
52.480000 -3.778276
52.500000 -4.243650
52.520000 -4.492658
52.540000 -4.977847
52.560000 -5.567556
52.580000 -6.052017
52.600000 -6.639304
52.620000 -7.090198
52.640000 -7.848397
52.660000 -8.714785
52.680000 -8.865727
52.700000 -9.375506
52.720000 -10.121630
52.740000 -10.760860
52.760000 -11.173220
52.780000 -11.277040
52.800000 -11.665040
52.820000 -11.884390
52.840000 -11.798610
52.860000 -11.775010
52.880000 -11.611490
52.900000 -11.283980
52.920000 -11.383990
52.940000 -11.967020
52.960000 -12.442430
52.980000 -11.951510
53.000000 -11.558700
53.020000 -11.905720
53.040000 -11.544470
53.060000 -10.716010
53.080000 -10.175530
53.100000 -9.739551
53.120000 -9.112607
53.140000 -8.332787
53.160000 -8.284195
53.180000 -8.195330
53.200000 -7.597386
53.220000 -7.534595
53.240000 -7.607049
53.260000 -7.279454
53.280000 -6.830688
53.300000 -6.867405
53.320000 -6.931624
53.340000 -6.551377
53.360000 -6.487550
53.380000 -6.677659
53.400000 -6.576737
53.420000 -6.262207
53.440000 -6.181926
53.460000 -6.189194
53.480000 -5.811145
53.500000 -5.497063
53.520000 -5.659390
53.540000 -5.455585
53.560000 -5.109044
53.580000 -5.270279
53.600000 -5.219363
53.620000 -4.845627
53.640000 -4.695987
53.660000 -4.677418
53.680000 -4.418846
53.700000 -4.046903
53.720000 -4.058470
53.740000 -4.114651
53.760000 -3.820959
53.780000 -3.732135
53.800000 -3.815693
53.820000 -3.644334
53.840000 -3.281927
53.860000 -3.208815
53.880000 -3.016003
53.900000 -2.734003
53.920000 -2.532159
53.940000 -2.473639
53.960000 -2.302349
53.980000 -1.934733
54.000000 -1.831822
54.020000 -1.597224
54.040000 -1.081438
54.060000 -0.644351
54.080000 -0.485875
54.100000 -0.045007
54.120000 0.552839
54.140000 0.852119
54.160000 1.127285
54.180000 1.732693
54.200000 2.459593
54.220000 2.828386
54.240000 3.417942
54.260000 4.259516
54.280000 4.876084
54.300000 5.417272
54.320000 6.063542
54.340000 6.840462
54.360000 7.448054
54.380000 8.076596
54.400000 8.941934
54.420000 9.658682
54.440000 10.334480
54.460000 11.159270
54.480000 11.940680
54.500000 12.590970
54.520000 13.122960
54.540000 13.904000
54.560000 14.694210
54.580000 15.041140
54.600000 15.380220
54.620000 16.034740
54.640000 16.422290
54.660000 16.374280
54.680000 16.463140
54.700000 16.641840
54.720000 16.693780
54.740000 16.611200
54.760000 16.725370
54.780000 17.034140
54.800000 17.184010
54.820000 17.387660
54.840000 17.781040
54.860000 17.894400
54.880000 17.587960
54.900000 17.124790
54.920000 16.698970
54.940000 16.030130
54.960000 15.060790
54.980000 14.529120
55.000000 14.100960
55.020000 13.548120
55.040000 12.981610
55.060000 12.598660
55.080000 12.493220
55.100000 11.997590
55.120000 11.365200
55.140000 11.081960
55.160000 10.717410
55.180000 10.191710
55.200000 9.758484
55.220000 9.434642
55.240000 9.190745
55.260000 8.840717
55.280000 8.346902
55.300000 8.255517
55.320000 7.739478
55.340000 7.197660
55.360000 7.033205
55.380000 6.675349
55.400000 6.368745
55.420000 6.008046
55.440000 5.868867
55.460000 5.806594
55.480000 5.369423
55.500000 5.006988
55.520000 4.817872
55.540000 4.559524
55.560000 4.142980
55.580000 3.676318
55.600000 3.501766
55.620000 3.418754
55.640000 2.972355
55.660000 2.721288
55.680000 2.531977
55.700000 2.186822
55.720000 1.860655
55.740000 1.442949
55.760000 1.191602
55.780000 0.868951
55.800000 0.552475
55.820000 0.434230
55.840000 0.224880
55.860000 -0.077299
55.880000 -0.392500
55.900000 -0.648552
55.920000 -0.968865
55.940000 -1.429814
55.960000 -1.877585
55.980000 -2.106946
56.000000 -2.457661
56.020000 -2.911342
56.040000 -3.206659
56.060000 -3.453902
56.080000 -3.814195
56.100000 -4.358716
56.120000 -4.849254
56.140000 -5.305945
56.160000 -5.866864
56.180000 -6.422966
56.200000 -7.006318
56.220000 -7.659491
56.240000 -8.464531
56.260000 -8.863221
56.280000 -9.203096
56.300000 -9.919579
56.320000 -10.656870
56.340000 -11.047650
56.360000 -11.108790
56.380000 -11.397480
56.400000 -11.636130
56.420000 -11.426450
56.440000 -11.348020
56.460000 -11.314680
56.480000 -10.976020
56.500000 -10.788950
56.520000 -11.321620
56.540000 -12.106900
56.560000 -11.934380
56.580000 -11.388550
56.600000 -11.679400
56.620000 -11.773640
56.640000 -11.124410
56.660000 -10.463480
56.680000 -10.212880
56.700000 -9.768482
56.720000 -9.036834
56.740000 -8.763055
56.760000 -8.821799
56.780000 -8.387022
56.800000 -8.036098
56.820000 -8.132133
56.840000 -7.953744
56.860000 -7.414306
56.880000 -7.204354
56.900000 -7.380698
56.920000 -7.007705
56.940000 -6.688694
56.960000 -6.870668
56.980000 -6.866551
57.000000 -6.468407
57.020000 -6.260065
57.040000 -6.330404
57.060000 -6.014572
57.080000 -5.544773
57.100000 -5.571883
57.120000 -5.573690
57.140000 -5.180951
57.160000 -5.115444
57.180000 -5.218761
57.200000 -4.907494
57.220000 -4.618072
57.240000 -4.612191
57.260000 -4.494534
57.280000 -4.084446
57.300000 -4.013925
57.320000 -4.115085
57.340000 -3.954929
57.360000 -3.703428
57.380000 -3.752076
57.400000 -3.780069
57.420000 -3.365723
57.440000 -3.136684
57.460000 -3.150057
57.480000 -2.869038
57.500000 -2.572614
57.520000 -2.484743
57.540000 -2.366905
57.560000 -2.098278
57.580000 -1.720762
57.600000 -1.637540
57.620000 -1.216248
57.640000 -0.696709
57.660000 -0.482752
57.680000 -0.149458
57.700000 0.383216
57.720000 0.752793
57.740000 0.963992
57.760000 1.457932
57.780000 2.089722
57.800000 2.485289
57.820000 2.904452
57.840000 3.609452
57.860000 4.284470
57.880000 4.695511
57.900000 5.241992
57.920000 5.992208
57.940000 6.535917
57.960000 7.110461
57.980000 7.781811
58.000000 8.594944
58.020000 9.303206
58.040000 9.956954
58.060000 10.750410
58.080000 11.514230
58.100000 12.099520
58.120000 12.758410
58.140000 13.603000
58.160000 14.184980
58.180000 14.693610
58.200000 15.327170
58.220000 15.733370
58.240000 16.058840
58.260000 16.132020
58.280000 16.321050
58.300000 16.440190
58.320000 16.356810
58.340000 16.504050
58.360000 16.741320
58.380000 17.007930
58.400000 17.189440
58.420000 17.569700
58.440000 17.998970
58.460000 17.897320
58.480000 17.606730
58.500000 17.197040
58.520000 16.591260
58.540000 15.911200
58.560000 15.113120
58.580000 14.492110
58.600000 14.133180
58.620000 13.530530
58.640000 12.933200
58.660000 12.740120
58.680000 12.359440
58.700000 11.789600
58.720000 11.307900
58.740000 10.793710
58.760000 10.451360
58.780000 10.069760
58.800000 9.536320
58.820000 9.371515
58.840000 9.153594
58.860000 8.766765
58.880000 8.466155
58.900000 8.103132
58.920000 7.684837
58.940000 7.363600
58.960000 6.928922
58.980000 6.657466
59.000000 6.489342
59.020000 6.072840
59.040000 6.091450
59.060000 5.953209
59.080000 5.456384
59.100000 5.380779
59.120000 5.045273
59.140000 4.647493
59.160000 4.377662
59.180000 3.939847
59.200000 3.772227
59.220000 3.624841
59.240000 3.267111
59.260000 3.009029
59.280000 2.832223
59.300000 2.574267
59.320000 2.098012
59.340000 1.717681
59.360000 1.537864
59.380000 1.076747
59.400000 0.835651
59.420000 0.662779
59.440000 0.206620
59.460000 0.141448
59.480000 -0.171989
59.500000 -0.708094
59.520000 -0.942146
59.540000 -1.398642
59.560000 -1.840504
59.580000 -2.130906
59.600000 -2.660374
59.620000 -2.939293
59.640000 -3.210356
59.660000 -3.719308
59.680000 -4.100032
59.700000 -4.568178
59.720000 -5.060452
59.740000 -5.602649
59.760000 -6.282862
59.780000 -6.681678
59.800000 -7.316409
59.820000 -8.195470
59.840000 -8.727570
59.860000 -9.039313
59.880000 -9.588161
59.900000 -10.355040
59.920000 -10.819150
59.940000 -11.100750
59.960000 -11.365540
59.980000 -11.549470
60.000000 -11.724220
60.020000 -11.615090
60.040000 -11.552540
60.060000 -11.558150
60.080000 -11.197460
60.100000 -11.105030
60.120000 -11.772810
60.140000 -12.178900
60.160000 -11.752700
60.180000 -11.573400
60.200000 -11.658000
60.220000 -11.524520
60.240000 -10.939790
60.260000 -10.337970
60.280000 -10.025280
60.300000 -9.472395
60.320000 -8.965291
60.340000 -8.774999
60.360000 -8.709590
60.380000 -8.367487
60.400000 -8.166497
60.420000 -8.297387
60.440000 -7.929028
60.460000 -7.590553
60.480000 -7.513968
60.500000 -7.459901
60.520000 -7.154222
60.540000 -6.889166
60.560000 -7.042881
60.580000 -6.905186
60.600000 -6.565884
60.620000 -6.425095
60.640000 -6.454067
60.660000 -5.929207
60.680000 -5.634310
60.700000 -5.680634
60.720000 -5.297866
60.740000 -5.076612
60.760000 -4.980311
60.780000 -4.935724
60.800000 -4.623337
60.820000 -4.390069
60.840000 -4.417838
60.860000 -4.067810
60.880000 -3.777086
60.900000 -3.752580
60.920000 -3.708175
60.940000 -3.540723
60.960000 -3.403336
60.980000 -3.460344
61.000000 -3.388941
61.020000 -3.106605
61.040000 -2.974175
61.060000 -2.920514
61.080000 -2.677220
61.100000 -2.421196
61.120000 -2.384521
61.140000 -2.319602
61.160000 -1.968201
61.180000 -1.795638
61.200000 -1.739162
61.220000 -1.187906
61.240000 -0.772132
61.260000 -0.609693
61.280000 -0.121451
61.300000 0.394895
61.320000 0.663073
61.340000 0.992054
61.360000 1.545061
61.380000 2.032715
61.400000 2.474829
61.420000 3.020134
61.440000 3.626718
61.460000 4.326452
61.480000 4.802384
61.500000 5.292068
61.520000 6.030844
61.540000 6.554038
61.560000 7.002509
61.580000 7.731104
61.600000 8.471252
61.620000 9.076114
61.640000 9.771409
61.660000 10.529820
61.680000 11.262320
61.700000 11.904600
61.720000 12.521450
61.740000 13.319850
61.760000 13.992750
61.780000 14.510860
61.800000 15.062440
61.820000 15.548920
61.840000 15.910440
61.860000 16.118600
61.880000 16.283200
61.900000 16.358380
61.920000 16.525040
61.940000 16.740700
61.960000 16.830650
61.980000 17.114720
62.000000 17.445130
62.020000 17.798960
62.040000 18.106300
62.060000 17.862300
62.080000 17.420160
62.100000 17.024700
62.120000 16.351520
62.140000 15.379240
62.160000 14.708840
62.180000 14.205170
62.200000 13.717960
62.220000 13.220370
62.240000 12.729370
62.260000 12.490960
62.280000 12.193500
62.300000 11.625690
62.320000 10.957910
62.340000 10.617000
62.360000 10.336400
62.380000 9.773916
62.400000 9.392786
62.420000 9.147475
62.440000 8.986226
62.460000 8.774523
62.480000 8.340279
62.500000 8.009659
62.520000 7.708279
62.540000 7.417947
62.560000 6.991377
62.580000 6.722008
62.600000 6.474666
62.620000 6.407170
62.640000 6.258931
62.660000 5.971273
62.680000 5.776137
62.700000 5.443669
62.720000 5.207068
62.740000 4.855093
62.760000 4.364457
62.780000 4.066508
62.800000 3.966145
62.820000 3.700656
62.840000 3.318504
62.860000 3.128674
62.880000 2.922391
62.900000 2.690369
62.920000 2.197072
62.940000 1.761876
62.960000 1.582464
62.980000 1.311079
63.000000 0.924390
63.020000 0.574376
63.040000 0.443277
63.060000 0.202391
63.080000 -0.224026
63.100000 -0.587161
63.120000 -0.989842
63.140000 -1.367359
63.160000 -1.855054
63.180000 -2.357131
63.200000 -2.768325
63.220000 -3.158431
63.240000 -3.554306
63.260000 -3.904377
63.280000 -4.462803
63.300000 -4.971923
63.320000 -5.378749
63.340000 -6.015860
63.360000 -6.631798
63.380000 -7.204032
63.400000 -7.863618
63.420000 -8.451900
63.440000 -9.224353
63.460000 -9.661328
63.480000 -9.989637
63.500000 -10.645060
63.520000 -11.110020
63.540000 -11.520960
63.560000 -11.645890
63.580000 -11.759030
63.600000 -11.966100
63.620000 -11.863080
63.640000 -11.846040
63.660000 -11.796370
63.680000 -11.390790
63.700000 -11.317740
63.720000 -11.694060
63.740000 -11.878850
63.760000 -11.844330
63.780000 -11.476950
63.800000 -11.402890
63.820000 -11.413180
63.840000 -10.780600
63.860000 -10.225150
63.880000 -9.903181
63.900000 -9.394746
63.920000 -8.899713
63.940000 -8.634126
63.960000 -8.655873
63.980000 -8.354562
64.000000 -8.110554
64.020000 -8.184127
64.040000 -7.883349
64.060000 -7.604794
64.080000 -7.385837
64.100000 -7.199719
64.120000 -7.016191
64.140000 -6.714558
64.160000 -6.616212
64.180000 -6.555410
64.200000 -6.319131
64.220000 -6.021546
64.240000 -5.932792
64.260000 -5.709368
64.280000 -5.312499
64.300000 -5.242132
64.320000 -5.156306
64.340000 -4.869489
64.360000 -4.849086
64.380000 -4.867696
64.400000 -4.625970
64.420000 -4.494072
64.440000 -4.409940
64.460000 -4.238077
64.480000 -3.979519
64.500000 -3.858109
64.520000 -3.932327
64.540000 -3.753420
64.560000 -3.634490
64.580000 -3.722501
64.600000 -3.578224
64.620000 -3.331807
64.640000 -3.157899
64.660000 -3.018356
64.680000 -2.752124
64.700000 -2.595062
64.720000 -2.435031
64.740000 -2.334137
64.760000 -2.231520
64.780000 -1.820214
64.800000 -1.742215
64.820000 -1.373758
64.840000 -0.836729
64.860000 -0.581168
64.880000 -0.277169
64.900000 0.229179
64.920000 0.552461
64.940000 0.725738
64.960000 1.284935
64.980000 1.713242
65.000000 2.197450
65.020000 2.773913
65.040000 3.404176
65.060000 4.113069
65.080000 4.568024
65.100000 5.228143
65.120000 5.834012
65.140000 6.372666
65.160000 6.971646
65.180000 7.712774
65.200000 8.534310
65.220000 9.146173
65.240000 10.062240
65.260000 10.820360
65.280000 11.584470
65.300000 12.211080
65.320000 12.821170
65.340000 13.744640
65.360000 14.214210
65.380000 14.542540
65.400000 15.173740
65.420000 15.803740
65.440000 15.821930
65.460000 15.946000
65.480000 16.274190
65.500000 16.329750
65.520000 16.402980
65.540000 16.291400
65.560000 16.724750
65.580000 17.104780
65.600000 17.159360
65.620000 17.583870
65.640000 17.722130
65.660000 17.641710
65.680000 17.036430
65.700000 16.455920
65.720000 16.085410
65.740000 15.132600
65.760000 14.430970
65.780000 14.126360
65.800000 13.575380
65.820000 13.181620
65.840000 12.857080
65.860000 12.380780
65.880000 12.331100
65.900000 11.691020
65.920000 10.871960
65.940000 11.070350
65.960000 10.479640
65.980000 9.833766
66.000000 9.977286
66.020000 9.549652
66.040000 9.283028
66.060000 9.076072
66.080000 8.490745
66.100000 8.325183
66.120000 7.998135
66.140000 7.335187
66.160000 7.154628
66.180000 7.134295
66.200000 6.786703
66.220000 6.562832
66.240000 6.573866
66.260000 6.287806
66.280000 5.788193
66.300000 5.581742
66.320000 5.174118
66.340000 4.656217
66.360000 4.400558
66.380000 3.973035
66.400000 3.878624
66.420000 3.691287
66.440000 3.254494
66.460000 3.165489
66.480000 2.992673
66.500000 2.468723
66.520000 1.971282
66.540000 1.788090
66.560000 1.313936
66.580000 1.007080
66.600000 0.814576
66.620000 0.458106
66.640000 0.495495
66.660000 0.001064
66.680000 -0.440826
66.700000 -0.462349
66.720000 -1.237912
66.740000 -1.780430
66.760000 -1.910927
66.780000 -2.513016
66.800000 -2.896610
66.820000 -3.124319
66.840000 -3.622559
66.860000 -3.742610
66.880000 -4.319016
66.900000 -5.052275
66.920000 -5.233660
66.940000 -5.920959
66.960000 -6.622262
66.980000 -7.048958
67.000000 -7.466245
67.020000 -8.025539
67.040000 -8.888945
67.060000 -9.216259
67.080000 -9.587265
67.100000 -10.211170
67.120000 -10.830200
67.140000 -11.426970
67.160000 -11.476210
67.180000 -11.655690
67.200000 -11.926160
67.220000 -11.725410
67.240000 -11.657940
67.260000 -11.769190
67.280000 -11.489010
67.300000 -11.337280
67.320000 -11.387730
67.340000 -11.780770
67.360000 -12.283050
67.380000 -11.811220
67.400000 -11.463130
67.420000 -11.622530
67.440000 -11.273870
67.460000 -10.768040
67.480000 -10.245380
67.500000 -9.913655
67.520000 -9.537399
67.540000 -9.003870
67.560000 -8.817052
67.580000 -8.762046
67.600000 -8.250237
67.620000 -8.030468
67.640000 -8.006607
67.660000 -7.667543
67.680000 -7.280406
67.700000 -7.054308
67.720000 -7.068451
67.740000 -6.633619
67.760000 -6.244983
67.780000 -6.304456
67.800000 -6.111601
67.820000 -5.678995
67.840000 -5.530742
67.860000 -5.515380
67.880000 -5.166962
67.900000 -4.906794
67.920000 -4.886419
67.940000 -4.756551
67.960000 -4.472157
67.980000 -4.405249
68.000000 -4.429811
68.020000 -4.149940
68.040000 -4.028670
68.060000 -3.966902
68.080000 -3.922931
68.100000 -3.654108
68.120000 -3.518780
68.140000 -3.715317
68.160000 -3.419314
68.180000 -3.293886
68.200000 -3.345264
68.220000 -3.239931
68.240000 -3.088891
68.260000 -2.898277
68.280000 -2.886290
68.300000 -2.797312
68.320000 -2.445156
68.340000 -2.397110
68.360000 -2.355590
68.380000 -1.882445
68.400000 -1.809235
68.420000 -1.589200
68.440000 -1.151035
68.460000 -0.894381
68.480000 -0.549338
68.500000 -0.301268
68.520000 0.199996
68.540000 0.608390
68.560000 0.867228
68.580000 1.421902
68.600000 1.959057
68.620000 2.453460
68.640000 2.915207
68.660000 3.515335
68.680000 4.212843
68.700000 4.739873
68.720000 5.318380
68.740000 6.122020
68.760000 6.810215
68.780000 7.468093
68.800000 8.308785
68.820000 9.054731
68.840000 9.867640
68.860000 10.573450
68.880000 11.409590
68.900000 12.224850
68.920000 12.856040
68.940000 13.739000
68.960000 14.437570
68.980000 14.912770
69.000000 15.355220
69.020000 15.749600
69.040000 16.091070
69.060000 16.133810
69.080000 16.116050
69.100000 16.378740
69.120000 16.603950
69.140000 16.692050
69.160000 16.877640
69.180000 17.194090
69.200000 17.613590
69.220000 17.786910
69.240000 17.658470
69.260000 17.486120
69.280000 17.025980
69.300000 16.467550
69.320000 15.752340
69.340000 15.054280
69.360000 14.585320
69.380000 14.009460
69.400000 13.518960
69.420000 13.101930
69.440000 12.721790
69.460000 12.496130
69.480000 12.126270
69.500000 11.618340
69.520000 11.225420
69.540000 10.914140
69.560000 10.568170
69.580000 10.169170
69.600000 9.714891
69.620000 9.561751
69.640000 9.371011
69.660000 8.995776
69.680000 8.656979
69.700000 8.303898
69.720000 8.071218
69.740000 7.747852
69.760000 7.317011
69.780000 7.006374
69.800000 6.846358
69.820000 6.526381
69.840000 6.208126
69.860000 5.833816
69.880000 5.478635
69.900000 5.306716
69.920000 4.841020
69.940000 4.438339
69.960000 4.176280
69.980000 3.850100
70.000000 3.649893
70.020000 3.198383
70.040000 2.898767
70.060000 2.799973
70.080000 2.404938
70.100000 2.080592
70.120000 1.813030
70.140000 1.537864
70.160000 1.303461
70.180000 0.947286
70.200000 0.669781
70.220000 0.513153
70.240000 0.094873
70.260000 -0.201957
70.280000 -0.485917
70.300000 -0.911493
70.320000 -1.213070
70.340000 -1.653209
70.360000 -1.993253
70.380000 -2.302798
70.400000 -2.894398
70.420000 -3.113004
70.440000 -3.535052
70.460000 -4.062643
70.480000 -4.389341
70.500000 -4.938245
70.520000 -5.297459
70.540000 -5.818707
70.560000 -6.341410
70.580000 -6.764816
70.600000 -7.233425
70.620000 -7.871628
70.640000 -8.570816
70.660000 -9.191558
70.680000 -9.560378
70.700000 -9.997101
70.720000 -10.674580
70.740000 -11.062460
70.760000 -11.262030
70.780000 -11.463700
70.800000 -11.671370
70.820000 -11.705820
70.840000 -11.650310
70.860000 -11.735790
70.880000 -11.735210
70.900000 -11.385630
70.920000 -11.235040
70.940000 -11.525120
70.960000 -11.904780
70.980000 -11.858810
71.000000 -11.346340
71.020000 -11.358510
71.040000 -11.370850
71.060000 -10.887600
71.080000 -10.360920
71.100000 -9.956379
71.120000 -9.440369
71.140000 -8.975542
71.160000 -8.655999
71.180000 -8.433051
71.200000 -8.258947
71.220000 -7.923637
71.240000 -7.906987
71.260000 -7.812030
71.280000 -7.287968
71.300000 -7.103166
71.320000 -6.940488
71.340000 -6.559947
71.360000 -6.162531
71.380000 -6.032426
71.400000 -5.944121
71.420000 -5.626917
71.440000 -5.407876
71.460000 -5.332104
71.480000 -5.095671
71.500000 -4.761579
71.520000 -4.634288
71.540000 -4.516422
71.560000 -4.298865
71.580000 -4.194148
71.600000 -4.295421
71.620000 -4.146901
71.640000 -3.968694
71.660000 -4.131217
71.680000 -3.918576
71.700000 -3.707559
71.720000 -3.682563
71.740000 -3.613569
71.760000 -3.649277
71.780000 -3.396110
71.800000 -3.480257
71.820000 -3.578602
71.840000 -3.227650
71.860000 -3.213072
71.880000 -3.108187
71.900000 -2.879344
71.920000 -2.722871
71.940000 -2.562532
71.960000 -2.469746
71.980000 -2.255494
72.000000 -2.020602
72.020000 -1.905242
72.040000 -1.549150
72.060000 -1.072392
72.080000 -0.900514
72.100000 -0.470975
72.120000 0.092534
72.140000 0.468315
72.160000 0.820093
72.180000 1.294149
72.200000 2.003546
72.220000 2.455126
72.240000 2.984705
72.260000 3.753826
72.280000 4.520469
72.300000 5.153855
72.320000 5.697074
72.340000 6.548590
72.360000 7.239950
72.380000 7.779374
72.400000 8.571727
72.420000 9.348633
72.440000 10.044740
72.460000 10.854990
72.480000 11.684770
72.500000 12.440630
72.520000 13.200400
72.540000 13.910900
72.560000 14.650770
72.580000 15.065630
72.600000 15.324160
72.620000 15.886150
72.640000 16.228940
72.660000 16.245120
72.680000 16.268860
72.700000 16.542040
72.720000 16.820860
72.740000 16.806200
72.760000 16.846370
72.780000 17.191480
72.800000 17.524620
72.820000 17.662640
72.840000 17.585010
72.860000 17.402870
72.880000 17.102310
72.900000 16.479540
72.920000 15.802250
72.940000 15.076050
72.960000 14.489020
72.980000 13.994950
73.000000 13.467470
73.020000 13.005010
73.040000 12.642770
73.060000 12.437080
73.080000 12.233130
73.100000 11.695140
73.120000 11.263290
73.140000 11.021590
73.160000 10.763620
73.180000 10.203240
73.200000 9.753513
73.220000 9.646401
73.240000 9.445383
73.260000 9.203138
73.280000 8.659990
73.300000 8.407061
73.320000 8.281269
73.340000 7.766771
73.360000 7.275337
73.380000 6.888424
73.400000 6.712374
73.420000 6.465522
73.440000 6.074618
73.460000 5.752723
73.480000 5.654237
73.500000 5.354481
73.520000 4.928709
73.540000 4.598565
73.560000 4.188169
73.580000 3.997177
73.600000 3.626690
73.620000 3.322005
73.640000 3.146178
73.660000 2.829800
73.680000 2.720756
73.700000 2.357229
73.720000 1.951341
73.740000 1.642119
73.760000 1.227493
73.780000 1.001269
73.800000 0.533556
73.820000 0.212193
73.840000 0.152217
73.860000 -0.211913
73.880000 -0.542840
73.900000 -0.905388
73.920000 -1.235209
73.940000 -1.634333
73.960000 -2.151253
73.980000 -2.652336
74.000000 -2.980126
74.020000 -3.361536
74.040000 -3.723397
74.060000 -4.058344
74.080000 -4.496355
74.100000 -4.831806
74.120000 -5.258306
74.140000 -5.789986
74.160000 -6.377077
74.180000 -6.888088
74.200000 -7.286470
74.220000 -7.806163
74.240000 -8.521903
74.260000 -9.122045
74.280000 -9.367776
74.300000 -9.717454
74.320000 -10.301460
74.340000 -10.868120
74.360000 -11.197460
74.380000 -11.259640
74.400000 -11.538450
74.420000 -11.608850
74.440000 -11.498150
74.460000 -11.515070
74.480000 -11.354850
74.500000 -11.142950
74.520000 -10.934290
74.540000 -11.003760
74.560000 -11.632610
74.580000 -11.768110
74.600000 -11.229080
74.620000 -11.227960
74.640000 -11.154300
74.660000 -10.949950
74.680000 -10.316530
74.700000 -9.728853
74.720000 -9.604545
74.740000 -8.962588
74.760000 -8.589875
74.780000 -8.546927
74.800000 -8.272937
74.820000 -8.034417
74.840000 -7.817911
74.860000 -7.773227
74.880000 -7.442187
74.900000 -6.960681
74.920000 -6.948652
74.940000 -6.718325
74.960000 -6.288086
74.980000 -6.141876
75.000000 -6.024836
75.020000 -5.892813
75.040000 -5.413743
75.060000 -5.238729
75.080000 -5.292768
75.100000 -4.721893
75.120000 -4.595443
75.140000 -4.582434
75.160000 -4.343284
75.180000 -4.326256
75.200000 -4.197369
75.220000 -4.253957
75.240000 -4.082485
75.260000 -3.954929
75.280000 -4.015815
75.300000 -3.783570
75.320000 -3.641491
75.340000 -3.734418
75.360000 -3.697659
75.380000 -3.649865
75.400000 -3.599985
75.420000 -3.674259
75.440000 -3.661754
75.460000 -3.336386
75.480000 -3.303044
75.500000 -3.229274
75.520000 -2.959499
75.540000 -2.834995
75.560000 -2.673229
75.580000 -2.540659
75.600000 -2.251643
75.620000 -1.905032
75.640000 -1.704644
75.660000 -1.149746
75.680000 -0.750510
75.700000 -0.390624
75.720000 0.182198
75.740000 0.621959
75.760000 1.030032
75.780000 1.519169
75.800000 2.041201
75.820000 2.718081
75.840000 3.219164
75.860000 3.823213
75.880000 4.699320
75.900000 5.309698
75.920000 5.948280
75.940000 6.635523
75.960000 7.373192
75.980000 8.098847
76.000000 8.697869
76.020000 9.483052
76.040000 10.315030
76.060000 11.078400
76.080000 11.872320
76.100000 12.613760
76.120000 13.416840
76.140000 14.145110
76.160000 14.740880
76.180000 15.221760
76.200000 15.584500
76.220000 16.004900
76.240000 16.362540
76.260000 16.444040
76.280000 16.517940
76.300000 16.684940
76.320000 16.864840
76.340000 17.010670
76.360000 17.000800
76.380000 17.185060
76.400000 17.514850
76.420000 17.703250
76.440000 17.673000
76.460000 17.437990
76.480000 17.167060
76.500000 16.598570
76.520000 15.971470
76.540000 15.189800
76.560000 14.547270
76.580000 14.140710
76.600000 13.488420
76.620000 13.085820
76.640000 12.733270
76.660000 12.373090
76.680000 12.284520
76.700000 11.846530
76.720000 11.307070
76.740000 11.101670
76.760000 10.772540
76.780000 10.411350
76.800000 10.028470
76.820000 9.631977
76.840000 9.603929
76.860000 9.315305
76.880000 8.840843
76.900000 8.555791
76.920000 8.247787
76.940000 8.051487
76.960000 7.515439
76.980000 7.088196
77.000000 6.977919
77.020000 6.596118
77.040000 6.305842
77.060000 5.941544
77.080000 5.528739
77.100000 5.334890
77.120000 4.897201
77.140000 4.544288
77.160000 4.191067
77.180000 3.784844
77.200000 3.645440
77.220000 3.288158
77.240000 2.935624
77.260000 2.714020
77.280000 2.412626
77.300000 2.105210
77.320000 1.734275
77.340000 1.317255
77.360000 1.087571
77.380000 0.773308
77.400000 0.415746
77.420000 0.141462
77.440000 -0.117026
77.460000 -0.344287
77.480000 -0.745679
77.500000 -1.103759
77.520000 -1.489454
77.540000 -1.902049
77.560000 -2.195294
77.580000 -2.699849
77.600000 -3.123675
77.620000 -3.294264
77.640000 -3.659038
77.660000 -4.118544
77.680000 -4.405655
77.700000 -4.788787
77.720000 -5.219209
77.740000 -5.665468
77.760000 -6.190720
77.780000 -6.506020
77.800000 -6.953456
77.820000 -7.538446
77.840000 -8.095038
77.860000 -8.728970
77.880000 -9.154631
77.900000 -9.428144
77.920000 -10.069480
77.940000 -10.610950
77.960000 -10.962840
77.980000 -11.173650
78.000000 -11.197550
78.020000 -11.443610
78.040000 -11.514060
78.060000 -11.274330
78.080000 -11.321580
78.100000 -11.020550
78.120000 -10.892040
78.140000 -11.295070
78.160000 -11.802160
78.180000 -11.910540
78.200000 -11.228630
78.220000 -11.297150
78.240000 -11.479130
78.260000 -10.866650
78.280000 -10.228700
78.300000 -9.796475
78.320000 -9.371795
78.340000 -8.761052
78.360000 -8.245238
78.380000 -8.319484
78.400000 -8.049247
78.420000 -7.570402
78.440000 -7.674685
78.460000 -7.537690
78.480000 -7.104482
78.500000 -6.792767
78.520000 -6.791829
78.540000 -6.639682
78.560000 -6.121418
78.580000 -6.121936
78.600000 -6.199948
78.620000 -5.801231
78.640000 -5.518657
78.660000 -5.557432
78.680000 -5.371845
78.700000 -4.898882
78.720000 -4.799248
78.740000 -4.861171
78.760000 -4.547075
78.780000 -4.402378
78.800000 -4.586284
78.820000 -4.477968
78.840000 -4.262681
78.860000 -4.305405
78.880000 -4.292102
78.900000 -4.095074
78.920000 -3.883315
78.940000 -4.045320
78.960000 -4.042492
78.980000 -3.813173
79.000000 -3.897137
79.020000 -3.990385
79.040000 -3.791579
79.060000 -3.502018
79.080000 -3.439157
79.100000 -3.274197
79.120000 -2.856015
79.140000 -2.663258
79.160000 -2.587416
79.180000 -2.255550
79.200000 -1.868791
79.220000 -1.696396
79.240000 -1.357598
79.260000 -0.772804
79.280000 -0.382614
79.300000 -0.051364
79.320000 0.512215
79.340000 1.070935
79.360000 1.371406
79.380000 1.793523
79.400000 2.421700
79.420000 2.968378
79.440000 3.386532
79.460000 4.000202
79.480000 4.759506
79.500000 5.343362
79.520000 5.861613
79.540000 6.565688
79.560000 7.281974
79.580000 7.841703
79.600000 8.503964
79.620000 9.324814
79.640000 10.050080
79.660000 10.742290
79.680000 11.571120
79.700000 12.397000
79.720000 13.050480
79.740000 13.723540
79.760000 14.505580
79.780000 15.043060
79.800000 15.373740
79.820000 15.790800
79.840000 16.306950
79.860000 16.428390
79.880000 16.494540
79.900000 16.654960
79.920000 16.870580
79.940000 17.027970
79.960000 16.932240
79.980000 17.290360
80.000000 17.551130
80.020000 17.615340
80.040000 17.929940
80.060000 17.880730
80.080000 17.660780
80.100000 17.108980
80.120000 16.483070
80.140000 15.963180
80.160000 15.136560
80.180000 14.327980
80.200000 13.898170
80.220000 13.525190
80.240000 12.963200
80.260000 12.521600
80.280000 12.389380
80.300000 12.209230
80.320000 11.552610
80.340000 11.017270
80.360000 10.863250
80.380000 10.424650
80.400000 9.905197
80.420000 9.485922
80.440000 9.310334
80.460000 9.195562
80.480000 8.629953
80.500000 8.348933
80.520000 8.117051
80.540000 7.635125
80.560000 7.248240
80.580000 6.730648
80.600000 6.509661
80.620000 6.215072
80.640000 5.896173
80.660000 5.603083
80.680000 5.417874
80.700000 5.080617
80.720000 4.687991
80.740000 4.457846
80.760000 4.016053
80.780000 3.664051
80.800000 3.442700
80.820000 3.175515
80.840000 2.954038
80.860000 2.743960
80.880000 2.444652
80.900000 2.350269
80.920000 2.092579
80.940000 1.581498
80.960000 1.293043
80.980000 1.079660
81.000000 0.760453
81.020000 0.307374
81.040000 0.076598
81.060000 0.016230
81.080000 -0.389252
81.100000 -0.799172
81.120000 -1.186197
81.140000 -1.439420
81.160000 -1.824625
81.180000 -2.528028
81.200000 -2.792677
81.220000 -2.941407
81.240000 -3.514005
81.260000 -3.865937
81.280000 -4.179669
81.300000 -4.589645
81.320000 -4.982566
81.340000 -5.731480
81.360000 -6.112245
81.380000 -6.486667
81.400000 -7.253436
81.420000 -7.661508
81.440000 -8.457487
81.460000 -8.984882
81.480000 -9.177820
81.500000 -9.786925
81.520000 -10.310300
81.540000 -10.890560
81.560000 -11.127730
81.580000 -11.084060
81.600000 -11.429270
81.620000 -11.497600
81.640000 -11.349240
81.660000 -11.285030
81.680000 -11.084600
81.700000 -10.862260
81.720000 -10.896290
81.740000 -11.468740
81.760000 -12.074020
81.780000 -11.480030
81.800000 -11.222440
81.820000 -11.576620
81.840000 -11.275160
81.860000 -10.647590
81.880000 -10.002730
81.900000 -9.789599
81.920000 -9.249924
81.940000 -8.526790
81.960000 -8.587578
81.980000 -8.501108
82.000000 -7.972733
82.020000 -7.909899
82.040000 -7.941981
82.060000 -7.541793
82.080000 -7.089750
82.100000 -6.982302
82.120000 -7.016471
82.140000 -6.509703
82.160000 -6.251159
82.180000 -6.506160
82.200000 -6.252993
82.220000 -5.815262
82.240000 -5.694665
82.260000 -5.738173
82.280000 -5.216730
82.300000 -4.885270
82.320000 -5.055985
82.340000 -4.838177
82.360000 -4.602836
82.380000 -4.697009
82.400000 -4.743178
82.420000 -4.466094
82.440000 -4.344810
82.460000 -4.415317
82.480000 -4.225222
82.500000 -3.935884
82.520000 -3.966075
82.540000 -4.166296
82.560000 -3.869074
82.580000 -3.768194
82.600000 -4.020689
82.620000 -3.806983
82.640000 -3.483589
82.660000 -3.369266
82.680000 -3.311530
82.700000 -2.985770
82.720000 -2.714567
82.740000 -2.732981
82.760000 -2.612426
82.780000 -2.209423
82.800000 -1.986980
82.820000 -1.824793
82.840000 -1.209835
82.860000 -0.679331
82.880000 -0.446427
82.900000 0.070633
82.920000 0.730766
82.940000 0.996479
82.960000 1.261199
82.980000 1.976519
83.000000 2.531220
83.020000 2.965059
83.040000 3.573799
83.060000 4.386092
83.080000 5.161347
83.100000 5.499640
83.120000 6.182318
83.140000 6.973914
83.160000 7.413270
83.180000 7.975911
83.200000 8.804855
83.220000 9.535494
83.240000 10.262140
83.260000 11.012920
83.280000 11.824550
83.300000 12.597620
83.320000 13.035170
83.340000 13.898230
83.360000 14.663930
83.380000 14.871570
83.400000 15.459870
83.420000 16.050830
83.440000 16.408840
83.460000 16.442210
83.480000 16.557520
83.500000 16.905440
83.520000 16.813250
83.540000 16.677830
83.560000 16.858470
83.580000 17.145180
83.600000 17.330130
83.620000 17.373360
83.640000 17.756040
83.660000 17.976300
83.680000 17.500720
83.700000 16.924610
83.720000 16.544110
83.740000 15.789500
83.760000 14.977220
83.780000 14.288280
83.800000 13.806970
83.820000 13.534760
83.840000 12.904060
83.860000 12.692930
83.880000 12.546330
83.900000 12.032900
83.920000 11.667950
83.940000 11.166470
83.960000 10.924570
83.980000 10.493140
84.000000 9.940864
84.020000 9.798603
84.040000 9.552690
84.060000 9.163719
84.080000 8.747077
84.100000 8.438639
84.120000 8.042483
84.140000 7.572936
84.160000 7.083113
84.180000 6.837676
84.200000 6.600039
84.220000 6.264714
84.240000 6.077111
84.260000 5.792843
84.280000 5.535153
84.300000 5.193064
84.320000 4.673441
84.340000 4.425904
84.360000 4.017006
84.380000 3.521847
84.400000 3.429802
84.420000 3.252604
84.440000 2.922489
84.460000 2.767387
84.480000 2.574267
84.500000 2.345102
84.520000 1.989626
84.540000 1.510641
84.560000 1.377567
84.580000 1.160991
84.600000 0.632070
84.620000 0.447590
84.640000 0.290038
84.660000 -0.004257
84.680000 -0.307780
84.700000 -0.835077
84.720000 -1.001871
84.740000 -1.370047
84.760000 -2.007663
84.780000 -2.251517
84.800000 -2.626247
84.820000 -3.061206
84.840000 -3.429102
84.860000 -3.827288
84.880000 -4.188673
84.900000 -4.738543
84.920000 -5.203623
84.940000 -5.622127
84.960000 -6.259967
84.980000 -6.757618
85.000000 -7.265198
85.020000 -7.954010
85.040000 -8.681415
85.060000 -9.239057
85.080000 -9.487421
85.100000 -9.952949
85.120000 -10.848930
85.140000 -11.110260
85.160000 -11.087530
85.180000 -11.357700
85.200000 -11.494580
85.220000 -11.482380
85.240000 -11.316500
85.260000 -11.235810
85.280000 -11.019040
85.300000 -10.685560
85.320000 -10.962160
85.340000 -11.713140
85.360000 -11.670560
85.380000 -11.081480
85.400000 -11.207720
85.420000 -11.385310
85.440000 -10.878390
85.460000 -10.265550
85.480000 -9.989161
85.500000 -9.618170
85.520000 -8.950966
85.540000 -8.614577
85.560000 -8.662944
85.580000 -8.393800
85.600000 -7.930989
85.620000 -8.079102
85.640000 -8.041349
85.660000 -7.488328
85.680000 -7.341517
85.700000 -7.388932
85.720000 -7.143901
85.740000 -6.740940
85.760000 -6.782152
85.780000 -6.783441
85.800000 -6.469877
85.820000 -6.172572
85.840000 -6.200130
85.860000 -5.990332
85.880000 -5.427285
85.900000 -5.417048
85.920000 -5.331894
85.940000 -4.940738
85.960000 -4.844759
85.980000 -4.921721
86.000000 -4.722859
86.020000 -4.394382
86.040000 -4.409576
86.060000 -4.309494
86.080000 -3.931347
86.100000 -3.761108
86.120000 -3.853754
86.140000 -3.778206
86.160000 -3.491865
86.180000 -3.595406
86.200000 -3.660676
86.220000 -3.329846
86.240000 -3.143700
86.260000 -3.085166
86.280000 -2.813682
86.300000 -2.527244
86.320000 -2.398076
86.340000 -2.320638
86.360000 -2.135205
86.380000 -1.809207
86.400000 -1.784505
86.420000 -1.447640
86.440000 -0.881540
86.460000 -0.656030
86.480000 -0.353641
86.500000 0.214868
86.520000 0.627043
86.540000 0.786471
86.560000 1.259267
86.580000 1.793607
86.600000 2.209815
86.620000 2.666269
86.640000 3.320394
86.660000 4.148679
86.680000 4.613731
86.700000 5.258964
86.720000 5.968711
86.740000 6.618579
86.760000 7.199593
86.780000 7.835962
86.800000 8.719168
86.820000 9.353576
86.840000 10.144790
86.860000 11.041120
86.880000 11.838100
86.900000 12.453750
86.920000 13.193220
86.940000 14.060160
86.960000 14.624150
86.980000 15.058720
87.000000 15.581500
87.020000 16.171170
87.040000 16.429700
87.060000 16.539220
87.080000 16.810270
87.100000 16.862630
87.120000 16.935500
87.140000 16.859410
87.160000 16.952690
87.180000 17.236660
87.200000 17.263620
87.220000 17.566660
87.240000 17.841670
87.260000 17.743050
87.280000 17.468080
87.300000 16.957940
87.320000 16.421790
87.340000 15.658790
87.360000 14.878000
87.380000 14.307170
87.400000 13.842930
87.420000 13.344170
87.440000 12.889010
87.460000 12.639140
87.480000 12.406310
87.500000 11.958010
87.520000 11.484790
87.540000 11.114650
87.560000 10.729700
87.580000 10.288200
87.600000 9.778649
87.620000 9.547789
87.640000 9.345959
87.660000 8.938531
87.680000 8.542123
87.700000 8.272111
87.720000 7.927978
87.740000 7.349793
87.760000 7.000129
87.780000 6.680292
87.800000 6.346060
87.820000 6.096828
87.840000 5.872172
87.860000 5.697872
87.880000 5.499780
87.900000 5.147525
87.920000 4.844395
87.940000 4.724568
87.960000 4.063651
87.980000 3.725161
88.000000 3.681821
88.020000 3.327340
88.040000 3.146276
88.060000 2.899495
88.080000 2.859529
88.100000 2.793307
88.120000 2.262986
88.140000 1.973144
88.160000 1.793705
88.180000 1.350569
88.200000 0.904337
88.220000 0.620517
88.240000 0.450684
88.260000 0.136589
88.280000 -0.207880
88.300000 -0.480540
88.320000 -0.877633
88.340000 -1.278059
88.360000 -1.757843
88.380000 -2.288010
88.400000 -2.654254
88.420000 -3.152578
88.440000 -3.564263
88.460000 -3.809028
88.480000 -4.328230
88.500000 -4.745881
88.520000 -5.067328
88.540000 -5.730948
88.560000 -6.341004
88.580000 -6.816853
88.600000 -7.532537
88.620000 -8.325057
88.640000 -8.930479
88.660000 -9.233918
88.680000 -9.638573
88.700000 -10.180320
88.720000 -10.797110
88.740000 -11.036090
88.760000 -11.066230
88.780000 -11.519810
88.800000 -11.606490
88.820000 -11.399570
88.840000 -11.500570
88.860000 -11.329720
88.880000 -10.865830
88.900000 -10.799420
88.920000 -11.237310
88.940000 -11.802840
88.960000 -11.648450
88.980000 -11.256580
89.000000 -11.502380
89.020000 -11.473270
89.040000 -10.949690
89.060000 -10.332130
89.080000 -9.968100
89.100000 -9.561596
89.120000 -8.890093
89.140000 -8.730217
89.160000 -8.802936
89.180000 -8.420504
89.200000 -8.206393
89.220000 -8.322481
89.240000 -8.092475
89.260000 -7.589082
89.280000 -7.430942
89.300000 -7.473765
89.320000 -7.089624
89.340000 -6.802765
89.360000 -6.960093
89.380000 -6.839846
89.400000 -6.582632
89.420000 -6.318795
89.440000 -6.168217
89.460000 -5.911031
89.480000 -5.373022
89.500000 -5.270069
89.520000 -5.200808
89.540000 -4.853693
89.560000 -4.807482
89.580000 -4.863635
89.600000 -4.641304
89.620000 -4.381527
89.640000 -4.335456
89.660000 -4.174656
89.680000 -3.812556
89.700000 -3.687815
89.720000 -3.806381
89.740000 -3.685252
89.760000 -3.531019
89.780000 -3.648969
89.800000 -3.655103
89.820000 -3.331933
89.840000 -3.111128
89.860000 -3.073067
89.880000 -2.770314
89.900000 -2.536990
89.920000 -2.514402
89.940000 -2.371106
89.960000 -2.201777
89.980000 -1.964560
90.000000 -1.748964
90.020000 -1.389778
90.040000 -0.857720
90.060000 -0.586783
90.080000 -0.278541
90.100000 0.328379
90.120000 0.572332
90.140000 0.851307
90.160000 1.289318
90.180000 1.854704
90.200000 2.425971
90.220000 2.722268
90.240000 3.583601
90.260000 4.375548
90.280000 4.667490
90.300000 5.404487
90.320000 6.031054
90.340000 6.589242
90.360000 7.208051
90.380000 7.810083
90.400000 8.666991
90.420000 9.410122
90.440000 10.087790
90.460000 10.992330
90.480000 11.667230
90.500000 12.295280
90.520000 13.010370
90.540000 13.678740
90.560000 14.361820
90.580000 14.700570
90.600000 15.332780
90.620000 15.992750
90.640000 16.061570
90.660000 16.322320
90.680000 16.531790
90.700000 16.557020
90.720000 16.671480
90.740000 16.523230
90.760000 16.884250
90.780000 17.146100
90.800000 17.193610
90.820000 17.626960
90.840000 17.922310
90.860000 17.793970
90.880000 17.417600
90.900000 16.875890
90.920000 16.244860
90.940000 15.471980
90.960000 14.594040
90.980000 14.122100
91.000000 13.699550
91.020000 13.106200
91.040000 12.668520
91.060000 12.513860
91.080000 12.226560
91.100000 11.650550
91.120000 11.271690
91.140000 10.941190
91.160000 10.521500
91.180000 10.078530
91.200000 9.725002
91.220000 9.555001
91.240000 9.280325
91.260000 9.022957
91.280000 8.734782
91.300000 8.418362
91.320000 8.007209
91.340000 7.622312
91.360000 7.436404
91.380000 6.983689
91.400000 6.598946
91.420000 6.623578
91.440000 6.437614
91.460000 6.007262
91.480000 5.736927
91.500000 5.428027
91.520000 5.258474
91.540000 4.720577
91.560000 4.131063
91.580000 4.150654
91.600000 3.807823
91.620000 3.411934
91.640000 3.207597
91.660000 3.010682
91.680000 2.909984
91.700000 2.472924
91.720000 2.118471
91.740000 1.972402
91.760000 1.502757
91.780000 1.213490
91.800000 1.013298
91.820000 0.681446
91.840000 0.515492
91.860000 0.155143
91.880000 -0.070773
91.900000 -0.335423
91.920000 -1.006716
91.940000 -1.280426
91.960000 -1.652523
91.980000 -2.243451
92.000000 -2.682345
92.020000 -3.152186
92.040000 -3.399093
92.060000 -3.846179
92.080000 -4.487435
92.100000 -4.807076
92.120000 -5.255183
92.140000 -5.906900
92.160000 -6.504648
92.180000 -7.070342
92.200000 -7.621108
92.220000 -8.406543
92.240000 -9.172695
92.260000 -9.338495
92.280000 -9.818740
92.300000 -10.550710
92.320000 -11.025420
92.340000 -11.257810
92.360000 -11.353730
92.380000 -11.615990
92.400000 -11.700930
92.420000 -11.563210
92.440000 -11.563520
92.460000 -11.439550
92.480000 -11.146930
92.500000 -11.083640
92.520000 -11.479060
92.540000 -11.913570
92.560000 -11.798490
92.580000 -11.332660
92.600000 -11.508480
92.620000 -11.430510
92.640000 -10.801430
92.660000 -10.354020
92.680000 -9.972105
92.700000 -9.492630
92.720000 -9.011138
92.740000 -8.812122
92.760000 -8.817976
92.780000 -8.497481
92.800000 -8.259143
92.820000 -8.339789
92.840000 -8.088260
92.860000 -7.648485
92.880000 -7.442215
92.900000 -7.392153
92.920000 -7.082581
92.940000 -6.705246
92.960000 -6.749300
92.980000 -6.648826
93.000000 -6.305982
93.020000 -6.069129
93.040000 -5.964300
93.060000 -5.703837
93.080000 -5.242622
93.100000 -5.151824
93.120000 -5.058814
93.140000 -4.713071
93.160000 -4.635324
93.180000 -4.681199
93.200000 -4.374316
93.220000 -4.161114
93.240000 -4.140487
93.260000 -3.921531
93.280000 -3.627516
93.300000 -3.528610
93.320000 -3.607883
93.340000 -3.472933
93.360000 -3.333487
93.380000 -3.425840
93.400000 -3.414441
93.420000 -3.181775
93.440000 -3.091159
93.460000 -2.944712
93.480000 -2.854474
93.500000 -2.608435
93.520000 -2.521222
93.540000 -2.472840
93.560000 -2.143901
93.580000 -2.122504
93.600000 -1.859871
93.620000 -1.469093
93.640000 -1.115326
93.660000 -0.753423
93.680000 -0.508070
93.700000 0.100950
93.720000 0.436779
93.740000 0.571225
93.760000 1.131654
93.780000 1.700205
93.800000 2.079948
93.820000 2.609975
93.840000 3.341413
93.860000 4.009794
93.880000 4.594098
93.900000 5.145481
93.920000 5.873306
93.940000 6.483993
93.960000 7.090689
93.980000 7.869038
94.000000 8.550133
94.020000 9.379749
94.040000 10.171040
94.060000 10.971960
94.080000 11.777620
94.100000 12.271930
94.120000 13.165560
94.140000 13.929080
94.160000 14.328990
94.180000 14.879320
94.200000 15.421850
94.220000 15.946470
94.240000 16.074830
94.260000 16.099800
94.280000 16.376470
94.300000 16.523450
94.320000 16.393450
94.340000 16.530120
94.360000 16.762060
94.380000 16.953330
94.400000 17.225340
94.420000 17.554800
94.440000 17.718210
94.460000 17.383640
94.480000 17.000560
94.500000 16.510750
94.520000 15.739180
94.540000 14.889960
94.560000 14.308370
94.580000 13.898140
94.600000 13.371760
94.620000 12.941350
94.640000 12.657870
94.660000 12.510940
94.680000 12.100270
94.700000 11.510700
94.720000 11.353510
94.740000 10.949120
94.760000 10.314750
94.780000 10.119060
94.800000 9.887077
94.820000 9.550618
94.840000 9.379399
94.860000 8.946947
94.880000 8.831335
94.900000 8.503390
94.920000 7.818527
94.940000 7.764222
94.960000 7.428072
94.980000 6.910297
95.000000 6.816615
95.020000 6.605108
95.040000 6.435163
95.060000 6.094265
95.080000 5.686025
95.100000 5.605225
95.120000 5.106033
95.140000 4.554539
95.160000 4.328342
95.180000 3.966509
95.200000 3.708049
95.220000 3.372389
95.240000 3.087350
95.260000 3.107851
95.280000 2.680734
95.300000 2.355898
95.320000 2.175101
95.340000 1.739834
95.360000 1.529644
95.380000 1.110775
95.400000 0.859849
95.420000 0.713514
95.440000 0.311533
95.460000 0.032866
95.480000 -0.223186
95.500000 -0.676279
95.520000 -1.121950
95.540000 -1.496708
95.560000 -2.017045
95.580000 -2.402516
95.600000 -2.857513
95.620000 -3.285568
95.640000 -3.572497
95.660000 -4.071717
95.680000 -4.518256
95.700000 -4.992578
95.720000 -5.468847
95.740000 -6.045421
95.760000 -6.657774
95.780000 -7.071000
95.800000 -7.650319
95.820000 -8.296350
95.840000 -9.087807
95.860000 -9.406173
95.880000 -9.753569
95.900000 -10.417200
95.920000 -10.946980
95.940000 -11.339090
95.960000 -11.396090
95.980000 -11.613050
96.000000 -11.766360
96.020000 -11.684720
96.040000 -11.613400
96.060000 -11.605860
96.080000 -11.430250
96.100000 -11.178890
96.120000 -11.245320
96.140000 -11.641070
96.160000 -11.967920
96.180000 -11.462550
96.200000 -11.187280
96.220000 -11.339030
96.240000 -10.962100
96.260000 -10.485220
96.280000 -9.924984
96.300000 -9.631697
96.320000 -9.216021
96.340000 -8.740355
96.360000 -8.706271
96.380000 -8.551716
96.400000 -8.185206
96.420000 -8.073641
96.440000 -8.045648
96.460000 -7.735389
96.480000 -7.379662
96.500000 -7.244642
96.520000 -7.179344
96.540000 -6.796814
96.560000 -6.479232
96.580000 -6.557440
96.600000 -6.348300
96.620000 -5.968025
96.640000 -5.831366
96.660000 -5.770045
96.680000 -5.412931
96.700000 -5.101678
96.720000 -5.102477
96.740000 -4.875958
96.760000 -4.610146
96.780000 -4.567590
96.800000 -4.540802
96.820000 -4.185788
96.840000 -4.042058
96.860000 -4.042198
96.880000 -3.762803
96.900000 -3.576880
96.920000 -3.487874
96.940000 -3.550245
96.960000 -3.411808
96.980000 -3.211532
97.000000 -3.374993
97.020000 -3.263414
97.040000 -3.016829
97.060000 -2.926830
97.080000 -2.767863
97.100000 -2.657783
97.120000 -2.441837
97.140000 -2.315289
97.160000 -2.283837
97.180000 -1.993449
97.200000 -1.785611
97.220000 -1.624685
97.240000 -1.147954
97.260000 -0.767343
97.280000 -0.543009
97.300000 -0.094747
97.320000 0.439188
97.340000 0.717700
97.360000 1.011883
97.380000 1.619867
97.400000 2.152289
97.420000 2.617061
97.440000 3.204544
97.460000 3.841067
97.480000 4.584352
97.500000 5.205023
97.520000 5.615644
97.540000 6.480184
97.560000 7.100211
97.580000 7.667039
97.600000 8.452936
97.620000 9.129537
97.640000 9.976992
97.660000 10.780620
97.680000 11.502420
97.700000 12.300470
97.720000 13.006200
97.740000 13.728590
97.760000 14.420320
97.780000 14.733870
97.800000 15.200110
97.820000 15.685240
97.840000 15.974510
97.860000 16.021280
97.880000 16.115860
97.900000 16.335630
97.920000 16.580340
97.940000 16.604700
97.960000 16.584240
97.980000 17.003640
98.000000 17.374340
98.020000 17.492530
98.040000 17.396000
98.060000 17.242830
98.080000 16.943910
98.100000 16.275080
98.120000 15.447730
98.140000 14.833120
98.160000 14.309450
98.180000 13.695260
98.200000 13.222750
98.220000 12.815670
98.240000 12.608480
98.260000 12.446140
98.280000 11.948850
98.300000 11.694070
98.320000 11.311210
98.340000 10.892560
98.360000 10.678410
98.380000 10.138300
98.400000 9.857698
98.420000 9.725604
98.440000 9.396399
98.460000 9.180075
98.480000 8.722655
98.500000 8.406137
98.520000 8.274827
98.540000 7.663104
98.560000 7.291021
98.580000 7.113318
98.600000 6.871732
98.620000 6.758291
98.640000 6.305604
98.660000 6.066902
98.680000 5.990066
98.700000 5.423448
98.720000 5.001162
98.740000 4.649132
98.760000 4.296583
98.780000 4.076982
98.800000 3.656839
98.820000 3.381421
98.840000 3.224107
98.860000 2.913820
98.880000 2.641889
98.900000 2.267117
98.920000 1.856888
98.940000 1.636195
98.960000 1.302467
98.980000 0.984675
99.000000 0.764374
99.020000 0.496461
99.040000 0.326558
99.060000 -0.018835
99.080000 -0.446329
99.100000 -0.833088
99.120000 -1.245347
99.140000 -1.664244
99.160000 -2.195532
99.180000 -2.578188
99.200000 -2.943424
99.220000 -3.280303
99.240000 -3.663925
99.260000 -4.176966
99.280000 -4.552914
99.300000 -5.007282
99.320000 -5.520239
99.340000 -6.132480
99.360000 -6.640284
99.380000 -6.967067
99.400000 -7.506476
99.420000 -8.084269
99.440000 -8.713287
99.460000 -9.329127
99.480000 -9.606155
99.500000 -10.109490
99.520000 -10.834870
99.540000 -11.206400
99.560000 -11.417700
99.580000 -11.451740
99.600000 -11.553600
99.620000 -11.650880
99.640000 -11.402520
99.660000 -11.414580
99.680000 -11.405780
99.700000 -11.105310
99.720000 -11.072830
99.740000 -11.327240
99.760000 -11.889170
99.780000 -11.733390
99.800000 -11.098310
99.820000 -11.217930
99.840000 -11.158050
99.860000 -10.628510
99.880000 -10.080030
99.900000 -9.764351
99.920000 -9.459624
99.940000 -8.916027
99.960000 -8.604494
99.980000 -8.646981
100.000000 -8.252380
100.020000 -7.954486
100.040000 -7.985448
100.060000 -7.762906
100.080000 -7.405792
100.100000 -7.124577
100.120000 -7.102871
100.140000 -6.765264
100.160000 -6.306906
100.180000 -6.272164
100.200000 -6.100595
100.220000 -5.819449
100.240000 -5.414388
100.260000 -5.517340
100.280000 -5.241250
100.300000 -4.778873
100.320000 -4.855835
100.340000 -4.668596
100.360000 -4.405907
100.380000 -4.300616
100.400000 -4.387703
100.420000 -4.170763
100.440000 -3.944454
100.460000 -4.072879
100.480000 -3.985932
100.500000 -3.697799
100.520000 -3.618106
100.540000 -3.787042
100.560000 -3.567344
100.580000 -3.373313
100.600000 -3.480215
100.620000 -3.409204
100.640000 -3.204068
100.660000 -3.054960
100.680000 -3.076273
100.700000 -2.870718
100.720000 -2.620954
100.740000 -2.530352
100.760000 -2.383177
100.780000 -2.117393
100.800000 -1.809851
100.820000 -1.750939
100.840000 -1.385325
100.860000 -0.868755
100.880000 -0.846027
100.900000 -0.435085
100.920000 0.098486
100.940000 0.482794
100.960000 0.712491
100.980000 1.216276
101.000000 1.984599
101.020000 2.327191
101.040000 2.745122
101.060000 3.560440
101.080000 4.230025
101.100000 4.740223
101.120000 5.364746
101.140000 6.167699
101.160000 6.973984
101.180000 7.469340
101.200000 8.341889
101.220000 9.306049
101.240000 9.895367
101.260000 10.708020
101.280000 11.608890
101.300000 12.464690
101.320000 13.114050
101.340000 13.820270
101.360000 14.697770
101.380000 15.077730
101.400000 15.377520
101.420000 15.849790
101.440000 16.256280
101.460000 16.263100
101.480000 16.175610
101.500000 16.477720
101.520000 16.816220
101.540000 16.681050
101.560000 16.776070
101.580000 17.210170
101.600000 17.502530
101.620000 17.598110
101.640000 17.273460
101.660000 17.233260
101.680000 16.940950
101.700000 16.034130
101.720000 15.498040
101.740000 14.959990
101.760000 14.388000
101.780000 13.888710
101.800000 13.433190
101.820000 13.156950
101.840000 12.783550
101.860000 12.469610
101.880000 12.258220
101.900000 11.819050
101.920000 11.360890
101.940000 11.217410
101.960000 10.912310
101.980000 10.532730
102.000000 10.064650
102.020000 9.942614
102.040000 9.853847
102.060000 9.197145
102.080000 8.749037
102.100000 8.482553
102.120000 8.193636
102.140000 7.670694
102.160000 7.127265
102.180000 7.065861
102.200000 6.901769
102.220000 6.472888
102.240000 6.120297
102.260000 5.898862
102.280000 5.618781
102.300000 5.197041
102.320000 4.801936
102.340000 4.427108
102.360000 4.137337
102.380000 3.819222
102.400000 3.608555
102.420000 3.315031
102.440000 3.002406
102.460000 2.762808
102.480000 2.454118
102.500000 2.110027
102.520000 1.601817
102.540000 1.361407
102.560000 1.232492
102.580000 0.828439
102.600000 0.535559
102.620000 0.305497
102.640000 0.124966
102.660000 -0.257410
102.680000 -0.754389
102.700000 -1.098592
102.720000 -1.458815
102.740000 -1.778652
102.760000 -2.255634
102.780000 -2.656929
102.800000 -2.858885
102.820000 -3.259003
102.840000 -3.694312
102.860000 -4.102748
102.880000 -4.579941
102.900000 -4.963885
102.920000 -5.393411
102.940000 -5.901859
102.960000 -6.331930
102.980000 -6.737314
103.000000 -7.098348
103.020000 -7.596938
103.040000 -8.351454
103.060000 -8.969184
103.080000 -9.394242
103.100000 -9.820575
103.120000 -10.429780
103.140000 -11.020330
103.160000 -11.166830
103.180000 -11.309870
103.200000 -11.527430
103.220000 -11.566770
103.240000 -11.517070
103.260000 -11.463230
103.280000 -11.493140
103.300000 -11.277470
103.320000 -10.986170
103.340000 -11.223010
103.360000 -11.690160
103.380000 -11.674480
103.400000 -11.158190
103.420000 -11.072990
103.440000 -11.081550
103.460000 -10.748730
103.480000 -10.122100
103.500000 -9.629667
103.520000 -9.287761
103.540000 -8.769146
103.560000 -8.243404
103.580000 -8.236248
103.600000 -7.978376
103.620000 -7.652910
103.640000 -7.734661
103.660000 -7.564310
103.680000 -7.363460
103.700000 -7.030012
103.720000 -6.906880
103.740000 -6.838824
103.760000 -6.299442
103.780000 -6.284977
103.800000 -6.272990
103.820000 -5.943407
103.840000 -5.819925
103.860000 -5.679639
103.880000 -5.524888
103.900000 -5.158000
103.920000 -4.922519
103.940000 -4.806389
103.960000 -4.514937
103.980000 -4.360018
104.000000 -4.368588
104.020000 -4.227168
104.040000 -4.123081
104.060000 -4.052224
104.080000 -3.999305
104.100000 -3.843532
104.120000 -3.550624
104.140000 -3.652554
104.160000 -3.637346
104.180000 -3.345502
104.200000 -3.529226
104.220000 -3.504384
104.240000 -3.411752
104.260000 -3.313967
104.280000 -3.146472
104.300000 -3.108859
104.320000 -2.793125
104.340000 -2.709847
104.360000 -2.571914
104.380000 -2.359875
104.400000 -2.193837
104.420000 -1.995634
104.440000 -1.699631
104.460000 -1.280762
104.480000 -0.969691
104.500000 -0.653747
104.520000 -0.009522
104.540000 0.419597
104.560000 0.640976
104.580000 1.276981
104.600000 1.810705
104.620000 2.326743
104.640000 2.864921
104.660000 3.497439
104.680000 4.357371
104.700000 4.926314
104.720000 5.605688
104.740000 6.369487
104.760000 7.047404
104.780000 7.731763
104.800000 8.431217
104.820000 9.276502
104.840000 9.982832
104.860000 10.751640
104.880000 11.779810
104.900000 12.477600
104.920000 13.175380
104.940000 14.077190
104.960000 14.665850
104.980000 15.120950
105.000000 15.445280
105.020000 15.821300
105.040000 16.353120
105.060000 16.226330
105.080000 16.273020
105.100000 16.650550
105.120000 16.688690
105.140000 16.793620
105.160000 16.799360
105.180000 17.062300
105.200000 17.389700
105.220000 17.374550
105.240000 17.440270
105.260000 17.297550
105.280000 16.843810
105.300000 16.411160
105.320000 15.803500
105.340000 15.113710
105.360000 14.503090
105.380000 13.900510
105.400000 13.592650
105.420000 13.114610
105.440000 12.603240
105.460000 12.591360
105.480000 12.378700
105.500000 11.918100
105.520000 11.477890
105.540000 11.241380
105.560000 11.024490
105.580000 10.475850
105.600000 10.010240
105.620000 9.864209
105.640000 9.702722
105.660000 9.233778
105.680000 8.894224
105.700000 8.624841
105.720000 8.310746
105.740000 7.911678
105.760000 7.472700
105.780000 7.207225
105.800000 6.904080
105.820000 6.595305
105.840000 6.360679
105.860000 6.042242
105.880000 5.591600
105.900000 5.265476
105.920000 4.985745
105.940000 4.465996
105.960000 3.974071
105.980000 3.662847
106.000000 3.548775
106.020000 3.198509
106.040000 2.772961
106.060000 2.697272
106.080000 2.515089
106.100000 2.160789
106.120000 1.683779
106.140000 1.365202
106.160000 1.248428
106.180000 0.806048
106.200000 0.424876
106.220000 0.265896
106.240000 0.101566
106.260000 -0.236041
106.280000 -0.551060
106.300000 -0.844697
106.320000 -1.273634
106.340000 -1.689772
106.360000 -2.131970
106.380000 -2.479044
106.400000 -2.942821
106.420000 -3.396558
106.440000 -3.663939
106.460000 -3.994922
106.480000 -4.530859
106.500000 -5.025318
106.520000 -5.291732
106.540000 -5.763884
106.560000 -6.463268
106.580000 -6.978143
106.600000 -7.289298
106.620000 -7.765651
106.640000 -8.648297
106.660000 -9.284428
106.680000 -9.510190
106.700000 -9.835908
106.720000 -10.550390
106.740000 -11.090810
106.760000 -11.219260
106.780000 -11.368020
106.800000 -11.565310
106.820000 -11.584730
106.840000 -11.458390
106.860000 -11.364960
106.880000 -11.273620
106.900000 -10.914430
106.920000 -10.628400
106.940000 -11.019960
106.960000 -11.658450
106.980000 -11.520070
107.000000 -11.064970
107.020000 -11.105540
107.040000 -11.136880
107.060000 -10.721440
107.080000 -10.056980
107.100000 -9.720563
107.120000 -9.275760
107.140000 -8.764427
107.160000 -8.429620
107.180000 -8.359912
107.200000 -8.131069
107.220000 -7.848299
107.240000 -7.850119
107.260000 -7.693421
107.280000 -7.335285
107.300000 -7.042223
107.320000 -7.004428
107.340000 -6.747564
107.360000 -6.349812
107.380000 -6.296236
107.400000 -6.239270
107.420000 -5.976959
107.440000 -5.624718
107.460000 -5.641088
107.480000 -5.435393
107.500000 -4.918906
107.520000 -4.926356
107.540000 -4.737507
107.560000 -4.520875
107.580000 -4.435608
107.600000 -4.419084
107.620000 -4.379777
107.640000 -4.148945
107.660000 -4.201486
107.680000 -4.144576
107.700000 -3.982095
107.720000 -3.883245
107.740000 -3.965361
107.760000 -3.987991
107.780000 -3.859188
107.800000 -3.906407
107.820000 -3.980639
107.840000 -3.804771
107.860000 -3.602016
107.880000 -3.551898
107.900000 -3.314065
107.920000 -3.133351
107.940000 -2.888880
107.960000 -2.736006
107.980000 -2.577950
108.000000 -2.182509
108.020000 -1.964014
108.040000 -1.544599
108.060000 -1.120031
108.080000 -0.664712
108.100000 -0.225454
108.120000 0.239584
108.140000 0.796245
108.160000 1.082026
108.180000 1.656598
108.200000 2.191639
108.220000 2.667249
108.240000 3.276228
108.260000 3.912597
108.280000 4.583666
108.300000 5.290066
108.320000 5.852945
108.340000 6.518175
108.360000 7.288724
108.380000 7.785031
108.400000 8.573015
108.420000 9.288699
108.440000 9.980325
108.460000 10.886610
108.480000 11.553910
108.500000 12.364130
108.520000 13.142290
108.540000 13.837680
108.560000 14.540870
108.580000 14.917100
108.600000 15.423390
108.620000 15.856120
108.640000 16.139370
108.660000 16.325330
108.680000 16.405830
108.700000 16.554230
108.720000 16.714150
108.740000 16.693590
108.760000 16.827090
108.780000 17.021080
108.800000 17.125160
108.820000 17.486240
108.840000 17.562460
108.860000 17.398220
108.880000 17.252320
108.900000 16.743460
108.920000 16.199780
108.940000 15.473080
108.960000 14.754100
108.980000 14.306850
109.000000 13.766180
109.020000 13.206170
109.040000 12.875620
109.060000 12.682010
109.080000 12.329350
109.100000 11.960110
109.120000 11.578540
109.140000 11.230080
109.160000 10.861420
109.180000 10.326710
109.200000 9.988923
109.220000 9.661272
109.240000 9.337893
109.260000 9.056271
109.280000 8.793218
109.300000 8.424663
109.320000 8.039417
109.340000 7.712844
109.360000 7.332583
109.380000 6.902483
109.400000 6.494985
109.420000 6.321064
109.440000 6.045085
109.460000 5.661407
109.480000 5.395133
109.500000 5.080869
109.520000 4.838135
109.540000 4.384496
109.560000 3.858291
109.580000 3.592045
109.600000 3.328838
109.620000 2.981219
109.640000 2.704358
109.660000 2.444302
109.680000 2.251769
109.700000 2.032771
109.720000 1.564050
109.740000 1.234635
109.760000 0.989170
109.780000 0.632882
109.800000 0.391898
109.820000 0.071123
109.840000 -0.086107
109.860000 -0.228577
109.880000 -0.552293
109.900000 -0.839110
109.920000 -1.248428
109.940000 -1.572256
109.960000 -1.970022
109.980000 -2.423703
110.000000 -2.746004
110.020000 -3.119124
110.040000 -3.430671
110.060000 -3.737779
110.080000 -4.203502
110.100000 -4.614459
110.120000 -4.990534
110.140000 -5.594317
110.160000 -6.067645
110.180000 -6.575953
110.200000 -7.058005
110.220000 -7.568917
110.240000 -8.329902
110.260000 -8.962560
110.280000 -9.245120
110.300000 -9.642578
110.320000 -10.379550
110.340000 -10.844150
110.360000 -11.180780
110.380000 -11.153750
110.400000 -11.243400
110.420000 -11.470400
110.440000 -11.186550
110.460000 -11.093620
110.480000 -10.944120
110.500000 -10.533890
110.520000 -10.694640
110.540000 -11.243180
110.560000 -11.970860
110.580000 -11.623330
110.600000 -11.152840
110.620000 -11.508230
110.640000 -11.418580
110.660000 -10.749920
110.680000 -10.172490
110.700000 -9.854911
110.720000 -9.404059
110.740000 -8.798455
110.760000 -8.510182
110.780000 -8.636842
110.800000 -8.129276
110.820000 -7.827308
110.840000 -7.983879
110.860000 -7.656971
110.880000 -7.239082
110.900000 -7.037882
110.920000 -7.167973
110.940000 -6.837158
110.960000 -6.410517
110.980000 -6.754538
111.000000 -6.491639
111.020000 -6.142465
111.040000 -5.971708
111.060000 -5.920875
111.080000 -5.627071
111.100000 -5.100208
111.120000 -5.222079
111.140000 -5.167536
111.160000 -4.707330
111.180000 -4.731905
111.200000 -4.819945
111.220000 -4.406313
111.240000 -4.246465
111.260000 -4.199077
111.280000 -4.076702
111.300000 -3.803692
111.320000 -3.668056
111.340000 -3.963625
111.360000 -3.759232
111.380000 -3.532867
111.400000 -3.694298
111.420000 -3.697575
111.440000 -3.367740
111.460000 -3.102670
111.480000 -3.286114
111.500000 -3.035748
111.520000 -2.679390
111.540000 -2.795954
111.560000 -2.687092
111.580000 -2.332233
111.600000 -2.092131
111.620000 -1.841961
111.640000 -1.517475
111.660000 -0.913103
111.680000 -0.597510
111.700000 -0.428111
111.720000 0.255883
111.740000 0.593729
111.760000 0.787787
111.780000 1.467917
111.800000 2.105532
111.820000 2.650067
111.840000 3.176356
111.860000 3.968134
111.880000 4.742394
111.900000 5.200682
111.920000 5.778559
111.940000 6.551265
111.960000 7.285797
111.980000 7.817393
112.000000 8.551506
112.020000 9.603971
112.040000 10.207570
112.060000 10.931040
112.080000 11.900590
112.100000 12.438690
112.120000 13.202050
112.140000 13.902290
112.160000 14.527460
112.180000 15.173390
112.200000 15.502160
112.220000 16.038110
112.240000 16.594750
112.260000 16.637540
112.280000 16.637410
112.300000 16.879450
112.320000 16.922610
112.340000 16.843960
112.360000 16.922120
112.380000 17.132700
112.400000 17.457030
112.420000 17.548040
112.440000 17.836060
112.460000 17.853590
112.480000 17.501600
112.500000 17.045460
112.520000 16.330730
112.540000 15.806900
112.560000 14.952250
112.580000 14.235710
112.600000 14.017820
112.620000 13.466810
112.640000 12.935690
112.660000 12.670850
112.680000 12.413270
112.700000 12.021430
112.720000 11.490490
112.740000 10.886990
112.760000 10.739070
112.780000 10.425600
112.800000 9.638349
112.820000 9.529025
112.840000 9.427010
112.860000 8.973119
112.880000 8.585086
112.900000 8.214263
112.920000 7.907897
112.940000 7.449175
112.960000 7.026903
112.980000 6.711645
113.000000 6.474526
113.020000 6.225210
113.040000 5.989730
113.060000 5.806790
113.080000 5.533864
113.100000 5.057582
113.120000 4.699348
113.140000 4.498875
113.160000 3.920480
113.180000 3.459588
113.200000 3.397175
113.220000 3.157703
113.240000 2.926550
113.260000 2.649703
113.280000 2.479716
113.300000 2.379634
113.320000 1.864660
113.340000 1.403347
113.360000 1.276365
113.380000 0.827515
113.400000 0.567318
113.420000 0.251332
113.440000 0.062945
113.460000 0.071305
113.480000 -0.445251
113.500000 -0.710503
113.520000 -0.919797
113.540000 -1.455426
113.560000 -1.944661
113.580000 -2.346768
113.600000 -2.730138
113.620000 -3.164915
113.640000 -3.533343
113.660000 -3.788835
113.680000 -4.106529
113.700000 -4.633112
113.720000 -5.071263
113.740000 -5.583212
113.760000 -6.160137
113.780000 -6.699168
113.800000 -7.349709
113.820000 -7.885982
113.840000 -8.671557
113.860000 -9.150710
113.880000 -9.262471
113.900000 -9.941774
113.920000 -10.590200
113.940000 -10.964500
113.960000 -11.048420
113.980000 -11.187070
114.000000 -11.516350
114.020000 -11.287900
114.040000 -11.123740
114.060000 -11.026320
114.080000 -10.683010
114.100000 -10.384340
114.120000 -10.644240
114.140000 -11.430050
114.160000 -11.616880
114.180000 -11.075920
114.200000 -11.135840
114.220000 -11.404890
114.240000 -10.951650
114.260000 -10.261680
114.280000 -9.952304
114.300000 -9.657057
114.320000 -8.945714
114.340000 -8.674819
114.360000 -8.851752
114.380000 -8.545624
114.400000 -8.214655
114.420000 -8.325099
114.440000 -8.251063
114.460000 -7.756675
114.480000 -7.502107
114.500000 -7.559983
114.520000 -7.340719
114.540000 -6.956956
114.560000 -6.980846
114.580000 -7.017115
114.600000 -6.656962
114.620000 -6.297790
114.640000 -6.194837
114.660000 -5.942398
114.680000 -5.352773
114.700000 -5.208244
114.720000 -5.238225
114.740000 -4.844002
114.760000 -4.677432
114.780000 -4.824230
114.800000 -4.696827
114.820000 -4.223569
114.840000 -4.284092
114.860000 -4.310838
114.880000 -3.825860
114.900000 -3.817892
114.920000 -3.927790
114.940000 -3.921377
114.960000 -3.772185
114.980000 -3.685644
115.000000 -3.923015
115.020000 -3.555427
115.040000 -3.235520
115.060000 -3.372585
115.080000 -3.063530
115.100000 -2.864319
115.120000 -2.796696
115.140000 -2.685258
115.160000 -2.620786
115.180000 -2.139154
115.200000 -2.044169
115.220000 -1.775207
115.240000 -1.060895
115.260000 -0.760341
115.280000 -0.467797
115.300000 0.021495
115.320000 0.609651
115.340000 0.786793
115.360000 1.087095
115.380000 1.982709
115.400000 2.359385
115.420000 2.826313
115.440000 3.670254
115.460000 4.303935
115.480000 4.924382
115.500000 5.429105
115.520000 5.961933
115.540000 6.767925
115.560000 7.169135
115.580000 7.728276
115.600000 8.778752
115.620000 9.350972
115.640000 10.043830
115.660000 10.936560
115.680000 11.687850
115.700000 12.372170
115.720000 12.814400
115.740000 13.705390
115.760000 14.531620
115.780000 14.836130
115.800000 15.369910
115.820000 16.050080
115.840000 16.489540
115.860000 16.517010
115.880000 16.583470
115.900000 16.780570
115.920000 16.805550
115.940000 16.662240
115.960000 16.729510
115.980000 17.012970
116.000000 17.236490
116.020000 17.429180
116.040000 17.682680
116.060000 17.823900
116.080000 17.444480
116.100000 16.837490
116.120000 16.395070
116.140000 15.556440
116.160000 14.780430
116.180000 14.204780
116.200000 13.741730
116.220000 13.348370
116.240000 12.878180
116.260000 12.648750
116.280000 12.382980
116.300000 11.906070
116.320000 11.357560
116.340000 10.903370
116.360000 10.523960
116.380000 10.045090
116.400000 9.735532
116.420000 9.402336
116.440000 9.169586
116.460000 8.997051
116.480000 8.576950
116.500000 8.186676
116.520000 7.947751
116.540000 7.318019
116.560000 6.951425
116.580000 6.885987
116.600000 6.290494
116.620000 6.229608
116.640000 6.373786
116.660000 5.746337
116.680000 5.533892
116.700000 5.450880
116.720000 4.818348
116.740000 4.449290
116.760000 4.175580
116.780000 3.589413
116.800000 3.570382
116.820000 3.549279
116.840000 2.956685
116.860000 2.964919
116.880000 3.023453
116.900000 2.380264
116.920000 1.996796
116.940000 1.851343
116.960000 1.290060
116.980000 1.006632
117.000000 0.885153
117.020000 0.422061
117.040000 0.411349
117.060000 0.279619
117.080000 -0.273094
117.100000 -0.471339
117.120000 -0.851097
117.140000 -1.407044
117.160000 -1.798788
117.180000 -2.243255
117.200000 -2.636526
117.220000 -2.884273
117.240000 -3.255110
117.260000 -3.599075
117.280000 -3.937186
117.300000 -4.468390
117.320000 -4.858132
117.340000 -5.449424
117.360000 -6.161117
117.380000 -6.581610
117.400000 -7.111708
117.420000 -7.976331
117.440000 -8.581837
117.460000 -8.857997
117.480000 -9.380183
117.500000 -9.925978
117.520000 -10.674300
117.540000 -11.131250
117.560000 -11.045020
117.580000 -11.342540
117.600000 -11.705020
117.620000 -11.348380
117.640000 -11.341230
117.660000 -11.351840
117.680000 -10.867340
117.700000 -10.976230
117.720000 -11.457720
117.740000 -11.971070
117.760000 -11.972210
117.780000 -11.558630
117.800000 -11.668150
117.820000 -11.769660
117.840000 -11.156080
117.860000 -10.523000
117.880000 -10.344060
117.900000 -9.790958
117.920000 -9.294370
117.940000 -9.094556
117.960000 -9.126694
117.980000 -8.805079
118.000000 -8.442601
118.020000 -8.564543
118.040000 -8.270864
118.060000 -7.847332
118.080000 -7.453656
118.100000 -7.628768
118.120000 -7.271486
118.140000 -6.764368
118.160000 -7.050989
118.180000 -6.751541
118.200000 -6.495559
118.220000 -6.186743
118.240000 -6.068779
118.260000 -5.757092
118.280000 -5.333938
118.300000 -5.286481
118.320000 -5.075884
118.340000 -4.915042
118.360000 -4.619066
118.380000 -4.763749
118.400000 -4.468838
118.420000 -4.120533
118.440000 -4.241396
118.460000 -4.042996
118.480000 -3.843196
118.500000 -3.702266
118.520000 -3.984056
118.540000 -3.810260
118.560000 -3.679651
118.580000 -3.784172
118.600000 -3.714533
118.620000 -3.576138
118.640000 -3.247983
118.660000 -3.390229
118.680000 -3.107025
118.700000 -2.860958
118.720000 -2.807437
118.740000 -2.640125
118.760000 -2.371400
118.780000 -2.024705
118.800000 -1.942771
118.820000 -1.358046
118.840000 -0.968445
118.860000 -0.625292
118.880000 -0.233198
118.900000 0.235999
118.920000 0.776781
118.940000 0.928759
118.960000 1.471404
118.980000 2.131718
119.000000 2.579728
119.020000 2.991133
119.040000 3.722585
119.060000 4.404493
119.080000 4.771563
119.100000 5.418533
119.120000 5.957662
119.140000 6.602055
119.160000 7.093125
119.180000 7.741929
119.200000 8.581739
119.220000 9.133332
119.240000 9.866380
119.260000 10.678720
119.280000 11.397580
119.300000 11.937760
119.320000 12.709720
119.340000 13.566030
119.360000 14.155080
119.380000 14.663750
119.400000 15.211650
119.420000 15.803740
119.440000 16.047070
119.460000 16.094660
119.480000 16.298220
119.500000 16.460770
119.520000 16.407740
119.540000 16.403960
119.560000 16.692570
119.580000 16.897500
119.600000 17.103120
119.620000 17.352610
119.640000 17.600620
119.660000 17.486330
119.680000 17.034480
119.700000 16.571860
119.720000 15.978960
119.740000 15.259100
119.760000 14.533580
119.780000 14.029590
119.800000 13.626930
119.820000 13.135750
119.840000 12.741280
119.860000 12.479550
119.880000 12.156690
119.900000 11.671790
119.920000 11.226360
119.940000 10.905110
119.960000 10.566520
119.980000 10.042960
120.000000 9.766886
120.020000 9.605693
120.040000 9.198797
120.060000 8.829529
120.080000 8.538202
120.100000 8.230843
120.120000 7.882593
120.140000 7.397306
120.160000 7.159781
120.180000 7.004414
120.200000 6.691116
120.220000 6.449978
120.240000 6.272220
120.260000 6.100384
120.280000 5.811621
120.300000 5.387823
120.320000 5.128131
120.340000 4.797357
120.360000 4.326242
120.380000 4.056691
120.400000 3.832357
120.420000 3.584064
120.440000 3.309486
120.460000 3.062942
120.480000 2.895168
120.500000 2.557379
120.520000 2.136760
120.540000 1.849243
120.560000 1.615218
120.580000 1.277779
120.600000 0.922640
120.620000 0.723078
120.640000 0.584767
120.660000 0.240704
120.680000 -0.182212
120.700000 -0.466256
120.720000 -0.855774
120.740000 -1.347334
120.760000 -1.817343
120.780000 -2.238760
120.800000 -2.599193
120.820000 -3.032863
120.840000 -3.447349
120.860000 -3.791159
120.880000 -4.257345
120.900000 -4.784838
120.920000 -5.266092
120.940000 -5.879565
120.960000 -6.467119
120.980000 -7.003714
121.000000 -7.574799
121.020000 -8.284153
121.040000 -9.059576
121.060000 -9.425400
121.080000 -9.797189
121.100000 -10.570990
121.120000 -11.211100
121.140000 -11.458580
121.160000 -11.548140
121.180000 -11.732540
121.200000 -11.909360
121.220000 -11.736500
121.240000 -11.543380
121.260000 -11.563870
121.280000 -11.280690
121.300000 -11.083790
121.320000 -11.501240
121.340000 -12.059140
121.360000 -11.944910
121.380000 -11.374810
121.400000 -11.506480
121.420000 -11.522730
121.440000 -10.932550
121.460000 -10.341560
121.480000 -10.071390
121.500000 -9.749200
121.520000 -9.132043
121.540000 -8.961734
121.560000 -9.039803
121.580000 -8.661768
121.600000 -8.350963
121.620000 -8.439199
121.640000 -8.228028
121.660000 -7.739843
121.680000 -7.537102
121.700000 -7.544356
121.720000 -7.259177
121.740000 -6.810509
121.760000 -6.793103
121.780000 -6.754580
121.800000 -6.277975
121.820000 -5.952621
121.840000 -5.938576
121.860000 -5.630319
121.880000 -5.157482
121.900000 -5.109968
121.920000 -5.035975
121.940000 -4.696337
121.960000 -4.611056
121.980000 -4.617960
122.000000 -4.395167
122.020000 -4.149127
122.040000 -4.152726
122.060000 -4.067236
122.080000 -3.809000
122.100000 -3.722207
122.120000 -3.906281
122.140000 -3.822737
122.160000 -3.589483
122.180000 -3.749499
122.200000 -3.800332
122.220000 -3.512296
122.240000 -3.409722
122.260000 -3.407761
122.280000 -3.195918
122.300000 -2.947821
122.320000 -2.807269
122.340000 -2.697202
122.360000 -2.423605
122.380000 -2.071504
122.400000 -1.885693
122.420000 -1.508821
122.440000 -0.953587
122.460000 -0.676110
122.480000 -0.324738
122.500000 0.291760
122.520000 0.710965
122.540000 0.995429
122.560000 1.515696
122.580000 2.135107
122.600000 2.567811
122.620000 3.020246
122.640000 3.670744
122.660000 4.369134
122.680000 4.831007
122.700000 5.348166
122.720000 6.064410
122.740000 6.650829
122.760000 7.169149
122.780000 7.854950
122.800000 8.587760
122.820000 9.231187
122.840000 9.929465
122.860000 10.679070
122.880000 11.399440
122.900000 12.045580
122.920000 12.764520
122.940000 13.609550
122.960000 14.232420
122.980000 14.678960
123.000000 15.274030
123.020000 15.824170
123.040000 15.983320
123.060000 16.059000
123.080000 16.333360
123.100000 16.467930
123.120000 16.469820
123.140000 16.537860
123.160000 16.773740
123.180000 17.099510
123.200000 17.229310
123.220000 17.441810
123.240000 17.674940
123.260000 17.360160
123.280000 16.867520
123.300000 16.352960
123.320000 15.672530
123.340000 14.937810
123.360000 14.266270
123.380000 13.790810
123.400000 13.441850
123.420000 12.929000
123.440000 12.561710
123.460000 12.441530
123.480000 12.074390
123.500000 11.544180
123.520000 11.177560
123.540000 10.855890
123.560000 10.495470
123.580000 10.012110
123.600000 9.746287
123.620000 9.606883
123.640000 9.283616
123.660000 8.885360
123.680000 8.585394
123.700000 8.284896
123.720000 7.865775
123.740000 7.468079
123.760000 7.185729
123.780000 6.975133
123.800000 6.733785
123.820000 6.501525
123.840000 6.361547
123.860000 6.099418
123.880000 5.758240
123.900000 5.432662
123.920000 5.147231
123.940000 4.767782
123.960000 4.348479
123.980000 4.125140
124.000000 3.912092
124.020000 3.596555
124.040000 3.311376
124.060000 3.115315
124.080000 2.864683
124.100000 2.506042
124.120000 2.129380
124.140000 1.851651
124.160000 1.649386
124.180000 1.249478
124.200000 1.007822
124.220000 0.854135
124.240000 0.515170
124.260000 0.211437
124.280000 -0.189886
124.300000 -0.587791
124.320000 -1.010861
124.340000 -1.552021
124.360000 -1.979264
124.380000 -2.360533
124.400000 -2.851645
124.420000 -3.236500
124.440000 -3.581263
124.460000 -4.025142
124.480000 -4.549344
124.500000 -5.071529
124.520000 -5.526092
124.540000 -6.091772
124.560000 -6.717037
124.580000 -7.173967
124.600000 -7.635826
124.620000 -8.255433
124.640000 -8.952240
124.660000 -9.427654
124.680000 -9.758106
124.700000 -10.361540
124.720000 -11.034340
124.740000 -11.360200
124.760000 -11.516650
124.780000 -11.625800
124.800000 -11.740310
124.820000 -11.769020
124.840000 -11.578460
124.860000 -11.526390
124.880000 -11.370340
124.900000 -11.115660
124.920000 -11.248460
124.940000 -11.612710
124.960000 -11.835140
124.980000 -11.418530
125.000000 -11.135130
125.020000 -11.188090
125.040000 -10.895920
125.060000 -10.304320
125.080000 -9.837729
125.100000 -9.557886
125.120000 -9.118180
125.140000 -8.740831
125.160000 -8.666165
125.180000 -8.538497
125.200000 -8.189085
125.220000 -8.095878
125.240000 -8.079970
125.260000 -7.732603
125.280000 -7.415847
125.300000 -7.289690
125.320000 -7.211019
125.340000 -6.775599
125.360000 -6.513778
125.380000 -6.562804
125.400000 -6.299470
125.420000 -5.916856
125.440000 -5.757582
125.460000 -5.659797
125.480000 -5.299490
125.500000 -5.033762
125.520000 -4.980423
125.540000 -4.841706
125.560000 -4.606687
125.580000 -4.569368
125.600000 -4.519698
125.620000 -4.258816
125.640000 -4.161240
125.660000 -4.136118
125.680000 -3.916517
125.700000 -3.755773
125.720000 -3.758391
125.740000 -3.781539
125.760000 -3.590701
125.780000 -3.518010
125.800000 -3.588993
125.820000 -3.471519
125.840000 -3.258849
125.860000 -3.144288
125.880000 -3.076133
125.900000 -2.831551
125.920000 -2.600257
125.940000 -2.491157
125.960000 -2.325049
125.980000 -2.015154
126.000000 -1.794055
126.020000 -1.525835
126.040000 -1.068527
126.060000 -0.698558
126.080000 -0.372420
126.100000 0.096035
126.120000 0.588688
126.140000 0.938310
126.160000 1.272556
126.180000 1.891897
126.200000 2.414895
126.220000 2.820460
126.240000 3.403098
126.260000 4.096097
126.280000 4.696827
126.300000 5.256612
126.320000 5.861515
126.340000 6.582366
126.360000 7.198024
126.380000 7.756843
126.400000 8.486404
126.420000 9.182021
126.440000 9.878325
126.460000 10.604320
126.480000 11.338370
126.500000 12.057880
126.520000 12.777250
126.540000 13.548590
126.560000 14.173400
126.580000 14.576030
126.600000 15.066460
126.620000 15.571860
126.640000 15.778970
126.660000 15.857870
126.680000 16.065540
126.700000 16.334730
126.720000 16.508860
126.740000 16.547220
126.760000 16.791730
126.780000 17.162850
126.800000 17.439860
126.820000 17.617140
126.840000 17.595510
126.860000 17.429180
126.880000 16.964010
126.900000 16.371220
126.920000 15.713460
126.940000 14.988490
126.960000 14.405700
126.980000 13.880720
127.000000 13.413350
127.020000 12.972490
127.040000 12.589910
127.060000 12.380500
127.080000 12.137010
127.100000 11.607540
127.120000 11.234590
127.140000 11.087530
127.160000 10.729510
127.180000 10.287800
127.200000 9.910630
127.220000 9.739929
127.240000 9.585920
127.260000 9.083480
127.280000 8.721983
127.300000 8.407873
127.320000 8.171790
127.340000 7.739002
127.360000 7.359259
127.380000 7.191555
127.400000 6.954730
127.420000 6.733463
127.440000 6.454011
127.460000 6.174882
127.480000 5.877325
127.500000 5.529747
127.520000 5.162593
127.540000 4.727985
127.560000 4.342696
127.580000 4.034300
127.600000 3.843672
127.620000 3.502732
127.640000 3.196170
127.660000 2.967537
127.680000 2.703658
127.700000 2.402516
127.720000 1.987274
127.740000 1.661149
127.760000 1.435933
127.780000 1.155432
127.800000 0.824910
127.820000 0.585173
127.840000 0.355727
127.860000 -0.047709
127.880000 -0.361175
127.900000 -0.813078
127.920000 -1.246650
127.940000 -1.633031
127.960000 -2.162372
127.980000 -2.570150
128.000000 -3.028830
128.020000 -3.466505
128.040000 -3.798581
128.060000 -4.269514
128.080000 -4.727158
128.100000 -5.220581
128.120000 -5.693839
128.140000 -6.197582
128.160000 -6.734863
128.180000 -7.281904
128.200000 -7.695438
128.220000 -8.216377
128.240000 -8.977250
128.260000 -9.545311
128.280000 -9.858734
128.300000 -10.228280
128.320000 -10.884090
128.340000 -11.368880
128.360000 -11.460520
128.380000 -11.478850
128.400000 -11.579170
128.420000 -11.628050
128.440000 -11.478990
128.460000 -11.351250
128.480000 -11.252810
128.500000 -10.958640
128.520000 -10.811480
128.540000 -11.087570
128.560000 -11.684450
128.580000 -11.432850
128.600000 -10.917990
128.620000 -11.084920
128.640000 -11.023300
128.660000 -10.601390
128.680000 -10.030150
128.700000 -9.736022
128.720000 -9.397365
128.740000 -8.837146
128.760000 -8.604985
128.780000 -8.618400
128.800000 -8.262434
128.820000 -8.001047
128.840000 -8.081203
128.860000 -7.910418
128.880000 -7.486564
128.900000 -7.234909
128.920000 -7.278334
128.940000 -6.931022
128.960000 -6.432446
128.980000 -6.426705
129.000000 -6.316848
129.020000 -5.922612
129.040000 -5.618753
129.060000 -5.585117
129.080000 -5.379127
129.100000 -4.872681
129.120000 -4.847951
129.140000 -4.749060
129.160000 -4.407504
129.180000 -4.340679
129.200000 -4.387255
129.220000 -4.177596
129.240000 -4.008226
129.260000 -4.053162
129.280000 -3.967042
129.300000 -3.697281
129.320000 -3.641659
129.340000 -3.705109
129.360000 -3.601820
129.380000 -3.376646
129.400000 -3.392946
129.420000 -3.446340
129.440000 -3.154314
129.460000 -2.947008
129.480000 -2.943956
129.500000 -2.734227
129.520000 -2.458179
129.540000 -2.331182
129.560000 -2.199201
129.580000 -1.922256
129.600000 -1.645340
129.620000 -1.500209
129.640000 -1.159731
129.660000 -0.682356
129.680000 -0.482500
129.700000 -0.176779
129.720000 0.387361
129.740000 0.736479
129.760000 0.947580
129.780000 1.446184
129.800000 2.046690
129.820000 2.479058
129.840000 2.902198
129.860000 3.562806
129.880000 4.287677
129.900000 4.858804
129.920000 5.367056
129.940000 6.116922
129.960000 6.862042
129.980000 7.438420
130.000000 8.170572
130.020000 8.987178
130.040000 9.730463
130.060000 10.522660
130.080000 11.330380
130.100000 12.121870
130.120000 12.865930
130.140000 13.637010
130.160000 14.375040
130.180000 14.825920
130.200000 15.197290
130.220000 15.752480
130.240000 16.123590
130.260000 16.168290
130.280000 16.242700
130.300000 16.545300
130.320000 16.837060
130.340000 16.866660
130.360000 16.931290
130.380000 17.301330
130.400000 17.671480
130.420000 17.777390
130.440000 17.583420
130.460000 17.313520
130.480000 16.953340
130.500000 16.249730
130.520000 15.495170
130.540000 14.815510
130.560000 14.220110
130.580000 13.793470
130.600000 13.302670
130.620000 12.866260
130.640000 12.644120
130.660000 12.427360
130.680000 12.216900
130.700000 11.759090
130.720000 11.320280
130.740000 11.157410
130.760000 10.839030
130.780000 10.385670
130.800000 10.064230
130.820000 9.846005
130.840000 9.693690
130.860000 9.290827
130.880000 8.845646
130.900000 8.564109
130.920000 8.298969
130.940000 7.855650
130.960000 7.413788
130.980000 7.143187
131.000000 6.954982
131.020000 6.670083
131.040000 6.366686
131.060000 6.091408
131.080000 5.818707
131.100000 5.518769
131.120000 5.163349
131.140000 4.693270
131.160000 4.302436
131.180000 3.949047
131.200000 3.641827
131.220000 3.306251
131.240000 2.920654
131.260000 2.668916
131.280000 2.524303
131.300000 2.176907
131.320000 1.748950
131.340000 1.496162
131.360000 1.249422
131.380000 0.956346
131.400000 0.546677
131.420000 0.272968
131.440000 0.152329
131.460000 -0.196313
131.480000 -0.579039
131.500000 -0.917346
131.520000 -1.259603
131.540000 -1.595376
131.560000 -2.107073
131.580000 -2.541667
131.600000 -2.905698
131.620000 -3.356943
131.640000 -3.752790
131.660000 -4.203390
131.680000 -4.679449
131.700000 -5.087521
131.720000 -5.542252
131.740000 -6.098424
131.760000 -6.643295
131.780000 -7.141381
131.800000 -7.535421
131.820000 -8.164173
131.840000 -8.929120
131.860000 -9.496719
131.880000 -9.874362
131.900000 -10.249550
131.920000 -10.868110
131.940000 -11.336660
131.960000 -11.507780
131.980000 -11.575830
132.000000 -11.701340
132.020000 -11.747410
132.040000 -11.548140
132.060000 -11.459260
132.080000 -11.380770
132.100000 -10.976100
132.120000 -10.712350
132.140000 -10.857730
132.160000 -11.369310
132.180000 -11.413180
132.200000 -10.810460
132.220000 -10.818170
132.240000 -10.928240
132.260000 -10.560710
132.280000 -9.999692
132.300000 -9.528086
132.320000 -9.275732
132.340000 -8.763727
132.360000 -8.330799
132.380000 -8.403378
132.400000 -8.205707
132.420000 -7.909619
132.440000 -7.988122
132.460000 -7.881207
132.480000 -7.532957
132.500000 -7.231394
132.520000 -7.143677
132.540000 -6.921612
132.560000 -6.410895
132.580000 -6.334955
132.600000 -6.287287
132.620000 -5.960225
132.640000 -5.645079
132.660000 -5.514260
132.680000 -5.399740
132.700000 -4.900870
132.720000 -4.712735
132.740000 -4.685134
132.760000 -4.386218
132.780000 -4.282439
132.800000 -4.301316
132.820000 -4.214985
132.840000 -4.088143
132.860000 -4.051804
132.880000 -4.063931
132.900000 -3.846389
132.920000 -3.720554
132.940000 -3.815693
132.960000 -3.773711
132.980000 -3.586654
133.000000 -3.647457
133.020000 -3.750003
133.040000 -3.556925
133.060000 -3.351790
133.080000 -3.346090
133.100000 -3.168234
133.120000 -2.839267
133.140000 -2.680958
133.160000 -2.521754
133.180000 -2.254570
133.200000 -1.995788
133.220000 -1.745226
133.240000 -1.474428
133.260000 -1.049804
133.280000 -0.693615
133.300000 -0.363191
133.320000 0.188359
133.340000 0.634030
133.360000 0.961821
133.380000 1.464290
133.400000 2.093279
133.420000 2.594558
133.440000 3.010374
133.460000 3.697687
133.480000 4.480041
133.500000 5.043298
133.520000 5.594583
133.540000 6.393433
133.560000 7.143509
133.580000 7.725783
133.600000 8.400479
133.620000 9.187525
133.640000 9.961911
133.660000 10.670540
133.680000 11.445300
133.700000 12.217800
133.720000 13.004930
133.740000 13.791780
133.760000 14.428370
133.780000 14.974510
133.800000 15.353490
133.820000 15.808090
133.840000 16.200210
133.860000 16.230320
133.880000 16.301140
133.900000 16.534670
133.920000 16.786540
133.940000 16.860420
133.960000 16.892340
133.980000 17.224420
134.000000 17.532050
134.020000 17.646750
134.040000 17.612820
134.060000 17.351400
134.080000 17.037910
134.100000 16.543390
134.120000 15.830710
134.140000 15.182000
134.160000 14.678580
134.180000 14.150850
134.200000 13.681930
134.220000 13.163420
134.240000 12.813140
134.260000 12.636440
134.280000 12.359850
134.300000 11.892610
134.320000 11.464720
134.340000 11.265930
134.360000 10.976240
134.380000 10.451480
134.400000 10.075720
134.420000 9.862851
134.440000 9.641710
134.460000 9.204553
134.480000 8.808481
134.500000 8.519634
134.520000 8.229274
134.540000 7.846128
134.560000 7.414180
134.580000 7.108921
134.600000 6.844691
134.620000 6.536239
134.640000 6.226317
134.660000 5.914126
134.680000 5.577779
134.700000 5.168937
134.720000 4.835054
134.740000 4.470351
134.760000 3.977796
134.780000 3.657021
134.800000 3.415169
134.820000 3.078836
134.840000 2.814495
134.860000 2.563260
134.880000 2.367619
134.900000 2.162204
134.920000 1.750309
134.940000 1.385269
134.960000 1.195257
134.980000 0.872270
135.000000 0.511613
135.020000 0.251711
135.040000 0.083222
135.060000 -0.126114
135.080000 -0.477921
135.100000 -0.799928
135.120000 -1.125773
135.140000 -1.527487
135.160000 -1.998098
135.180000 -2.520816
135.200000 -2.889511
135.220000 -3.250685
135.240000 -3.647667
135.260000 -4.025044
135.280000 -4.392436
135.300000 -4.719456
135.320000 -5.224040
135.340000 -5.754025
135.360000 -6.269111
135.380000 -6.847156
135.400000 -7.341783
135.420000 -7.912882
135.440000 -8.630569
135.460000 -9.302576
135.480000 -9.665543
135.500000 -10.021540
135.520000 -10.626860
135.540000 -11.181070
135.560000 -11.515360
135.580000 -11.646260
135.600000 -11.769840
135.620000 -11.832170
135.640000 -11.735200
135.660000 -11.579220
135.680000 -11.410970
135.700000 -11.017930
135.720000 -10.755260
135.740000 -11.048700
135.760000 -11.597350
135.780000 -11.541010
135.800000 -10.908450
135.820000 -10.981370
135.840000 -10.980920
135.860000 -10.478090
135.880000 -9.816682
135.900000 -9.349614
135.920000 -9.049885
135.940000 -8.483771
135.960000 -8.132637
135.980000 -8.219500
136.000000 -7.991763
136.020000 -7.706403
136.040000 -7.755792
136.060000 -7.660906
136.080000 -7.279916
136.100000 -6.981518
136.120000 -7.040290
136.140000 -6.833125
136.160000 -6.418765
136.180000 -6.432824
136.200000 -6.419857
136.220000 -6.060041
136.240000 -5.786149
136.260000 -5.667666
136.280000 -5.489600
136.300000 -5.012057
136.320000 -4.843694
136.340000 -4.894219
136.360000 -4.542356
136.380000 -4.455493
136.400000 -4.574522
136.420000 -4.360424
136.440000 -4.181881
136.460000 -4.162711
136.480000 -4.131385
136.500000 -3.919248
136.520000 -3.801914
136.540000 -3.978552
136.560000 -3.949103
136.580000 -3.787645
136.600000 -3.883820
136.620000 -3.896395
136.640000 -3.688669
136.660000 -3.465413
136.680000 -3.393940
136.700000 -3.252492
136.720000 -2.926521
136.740000 -2.782945
136.760000 -2.675273
136.780000 -2.327191
136.800000 -1.984165
136.820000 -1.740688
136.840000 -1.353425
136.860000 -0.781990
136.880000 -0.441750
136.900000 -0.125610
136.920000 0.450740
136.940000 0.920007
136.960000 1.199500
136.980000 1.716057
137.000000 2.332793
137.020000 2.879386
137.040000 3.314723
137.060000 3.943768
137.080000 4.710494
137.100000 5.184844
137.120000 5.721467
137.140000 6.471362
137.160000 7.084135
137.180000 7.707565
137.200000 8.414441
137.220000 9.212773
137.240000 9.953229
137.260000 10.658870
137.280000 11.525610
137.300000 12.324030
137.320000 12.996760
137.340000 13.757400
137.360000 14.562810
137.380000 15.090520
137.400000 15.396160
137.420000 15.916580
137.440000 16.382610
137.460000 16.433930
137.480000 16.433100
137.500000 16.578330
137.520000 16.786480
137.540000 16.856150
137.560000 16.825000
137.580000 17.108990
137.600000 17.398640
137.620000 17.572470
137.640000 17.646720
137.660000 17.463770
137.680000 17.104660
137.700000 16.554150
137.720000 15.948340
137.740000 15.239010
137.760000 14.584520
137.780000 14.023780
137.800000 13.642190
137.820000 13.248390
137.840000 12.761550
137.860000 12.505830
137.880000 12.402250
137.900000 11.980430
137.920000 11.415040
137.940000 11.155810
137.960000 10.950160
137.980000 10.542570
138.000000 10.181620
138.020000 9.870665
138.040000 9.763035
138.060000 9.381093
138.080000 8.900232
138.100000 8.583517
138.120000 8.217861
138.140000 7.738008
138.160000 7.341363
138.180000 7.092313
138.200000 6.746976
138.220000 6.353397
138.240000 6.109151
138.260000 5.836953
138.280000 5.436639
138.300000 4.948636
138.320000 4.608284
138.340000 4.328398
138.360000 3.880459
138.380000 3.465973
138.400000 3.326416
138.420000 3.142846
138.440000 2.745528
138.460000 2.460784
138.480000 2.179848
138.500000 1.905228
138.520000 1.548898
138.540000 1.172124
138.560000 0.979914
138.580000 0.768547
138.600000 0.503407
138.620000 0.262311
138.640000 0.069667
138.660000 -0.267142
138.680000 -0.660567
138.700000 -0.988260
138.720000 -1.421468
138.740000 -1.834357
138.760000 -2.235945
138.780000 -2.507275
138.800000 -2.824493
138.820000 -3.250475
138.840000 -3.529352
138.860000 -3.887741
138.880000 -4.334826
138.900000 -4.886321
138.920000 -5.331390
138.940000 -5.729043
138.960000 -6.236539
138.980000 -6.772462
139.000000 -7.154740
139.020000 -7.548697
139.040000 -8.372823
139.060000 -9.115673
139.080000 -9.471303
139.100000 -9.830545
139.120000 -10.521680
139.140000 -11.149830
139.160000 -11.311490
139.180000 -11.295730
139.200000 -11.358370
139.220000 -11.386570
139.240000 -11.227730
139.260000 -11.126420
139.280000 -10.973510
139.300000 -10.528280
139.320000 -10.549070
139.340000 -11.007020
139.360000 -11.531600
139.380000 -11.214120
139.400000 -10.706270
139.420000 -10.988540
139.440000 -10.886240
139.460000 -10.407760
139.480000 -9.924606
139.500000 -9.663583
139.520000 -9.287789
139.540000 -8.672579
139.560000 -8.482371
139.580000 -8.554838
139.600000 -8.135046
139.620000 -7.947232
139.640000 -8.094450
139.660000 -7.880520
139.680000 -7.525493
139.700000 -7.360113
139.720000 -7.331826
139.740000 -7.017507
139.760000 -6.639164
139.780000 -6.657564
139.800000 -6.522138
139.820000 -6.154858
139.840000 -5.950450
139.860000 -5.913229
139.880000 -5.623514
139.900000 -5.204603
139.920000 -5.217500
139.940000 -5.090546
139.960000 -4.726122
139.980000 -4.698521
140.000000 -4.761355
140.020000 -4.499800
140.040000 -4.355271
140.060000 -4.347709
140.080000 -4.242838
140.100000 -3.988663
140.120000 -3.876972
140.140000 -3.978748
140.160000 -3.823465
140.180000 -3.648773
140.200000 -3.775966
140.220000 -3.692044
140.240000 -3.468200
140.260000 -3.365597
140.280000 -3.285610
140.300000 -3.044010
140.320000 -2.772863
140.340000 -2.701908
140.360000 -2.555670
140.380000 -2.223216
140.400000 -1.973382
140.420000 -1.776005
140.440000 -1.352459
140.460000 -0.823300
140.480000 -0.482976
140.500000 -0.128943
140.520000 0.487485
140.540000 0.920021
140.560000 1.201979
140.580000 1.784015
140.600000 2.365911
140.620000 2.827952
140.640000 3.401740
140.660000 4.074545
140.680000 4.771717
140.700000 5.304923
140.720000 5.905220
140.740000 6.651319
140.760000 7.195546
140.780000 7.767163
140.800000 8.549587
140.820000 9.319114
140.840000 9.958970
140.860000 10.710380
140.880000 11.587310
140.900000 12.353210
140.920000 12.956990
140.940000 13.705150
140.960000 14.515410
140.980000 15.029480
141.000000 15.400030
141.020000 15.947780
141.040000 16.434000
141.060000 16.599910
141.080000 16.700460
141.100000 16.847100
141.120000 16.993320
141.140000 17.043930
141.160000 17.079430
141.180000 17.290520
141.200000 17.472420
141.220000 17.612520
141.240000 17.888610
141.260000 17.704470
141.280000 17.288020
141.300000 16.782500
141.320000 16.150950
141.340000 15.498380
141.360000 14.607440
141.380000 13.942440
141.400000 13.626020
141.420000 13.130580
141.440000 12.630380
141.460000 12.330620
141.480000 12.189680
141.500000 11.897260
141.520000 11.315200
141.540000 10.913620
141.560000 10.770910
141.580000 10.386480
141.600000 9.993166
141.620000 9.656147
141.640000 9.436210
141.660000 9.242474
141.680000 8.778612
141.700000 8.345628
141.720000 8.006915
141.740000 7.578664
141.760000 7.183951
141.780000 6.782152
141.800000 6.411861
141.820000 6.227493
141.840000 6.006100
141.860000 5.703431
141.880000 5.355980
141.900000 4.954279
141.920000 4.673385
141.940000 4.302324
141.960000 3.844512
141.980000 3.533875
142.000000 3.394570
142.020000 3.237158
142.040000 3.003456
142.060000 2.720532
142.080000 2.574771
142.100000 2.406829
142.120000 1.947168
142.140000 1.525121
142.160000 1.330222
142.180000 1.060895
142.200000 0.773532
142.220000 0.511879
142.240000 0.370207
142.260000 0.237777
142.280000 -0.114884
142.300000 -0.482150
142.320000 -0.867705
142.340000 -1.271926
142.360000 -1.735535
142.380000 -2.161154
142.400000 -2.525605
142.420000 -2.925149
142.440000 -3.281773
142.460000 -3.600616
142.480000 -4.062321
142.500000 -4.593496
142.520000 -5.076150
142.540000 -5.640696
142.560000 -6.245865
142.580000 -6.825395
142.600000 -7.315078
142.620000 -7.908373
142.640000 -8.644320
142.660000 -9.187048
142.680000 -9.492518
142.700000 -9.991612
142.720000 -10.734660
142.740000 -11.186320
142.760000 -11.294780
142.780000 -11.440390
142.800000 -11.526910
142.820000 -11.508570
142.840000 -11.281430
142.860000 -11.084710
142.880000 -10.839540
142.900000 -10.485640
142.920000 -10.760840
142.940000 -11.448520
142.960000 -11.590080
142.980000 -11.020360
143.000000 -11.027640
143.020000 -11.207080
143.040000 -10.789400
143.060000 -10.147300
143.080000 -9.808588
143.100000 -9.563991
143.120000 -9.002806
143.140000 -8.641827
143.160000 -8.747595
143.180000 -8.636268
143.200000 -8.185682
143.220000 -8.211966
143.240000 -8.268176
143.260000 -7.750233
143.280000 -7.467183
143.300000 -7.514178
143.320000 -7.321772
143.340000 -6.952391
143.360000 -6.852757
143.380000 -6.893675
143.400000 -6.595165
143.420000 -6.149830
143.440000 -6.099390
143.460000 -5.900458
143.480000 -5.363471
143.500000 -5.232890
143.520000 -5.232456
143.540000 -4.918388
143.560000 -4.699320
143.580000 -4.771997
143.600000 -4.581271
143.620000 -4.224129
143.640000 -4.160498
143.660000 -4.102818
143.680000 -3.851066
143.700000 -3.663057
143.720000 -3.762494
143.740000 -3.808243
143.760000 -3.591653
143.780000 -3.575914
143.800000 -3.747217
143.820000 -3.481209
143.840000 -3.239973
143.860000 -3.307805
143.880000 -3.083821
143.900000 -2.855959
143.920000 -2.758537
143.940000 -2.657839
143.960000 -2.512638
143.980000 -2.083995
144.000000 -1.961339
144.020000 -1.673710
144.040000 -1.093929
144.060000 -0.781976
144.080000 -0.548148
144.100000 -0.050664
144.120000 0.444845
144.140000 0.659223
144.160000 1.042635
144.180000 1.713018
144.200000 2.216663
144.220000 2.688198
144.240000 3.351356
144.260000 4.064743
144.280000 4.639875
144.300000 5.142246
144.320000 5.816732
144.340000 6.572536
144.360000 7.055988
144.380000 7.736188
144.400000 8.700529
144.420000 9.354655
144.440000 10.077750
144.460000 10.914870
144.480000 11.669430
144.500000 12.345620
144.520000 12.952860
144.540000 13.760230
144.560000 14.532670
144.580000 14.989550
144.600000 15.501780
144.620000 16.161640
144.640000 16.502740
144.660000 16.605260
144.680000 16.780180
144.700000 16.910240
144.720000 16.880150
144.740000 16.872570
144.760000 17.006930
144.780000 17.240100
144.800000 17.412560
144.820000 17.583280
144.840000 17.943720
144.860000 17.874960
144.880000 17.339630
144.900000 16.893840
144.920000 16.338710
144.940000 15.516880
144.960000 14.726990
144.980000 14.113610
145.000000 13.722810
145.020000 13.207640
145.040000 12.645520
145.060000 12.411900
145.080000 12.216620
145.100000 11.707980
145.120000 11.165850
145.140000 10.824010
145.160000 10.560040
145.180000 10.031480
145.200000 9.635072
145.220000 9.395965
145.240000 9.218248
145.260000 8.884996
145.280000 8.449813
145.300000 8.209025
145.320000 7.876025
145.340000 7.406394
145.360000 7.033107
145.380000 6.757744
145.400000 6.475675
145.420000 6.191266
145.440000 5.992250
145.460000 5.708038
145.480000 5.418967
145.500000 5.071991
145.520000 4.710816
145.540000 4.352610
145.560000 3.907653
145.580000 3.540415
145.600000 3.383101
145.620000 3.147607
145.640000 2.810826
145.660000 2.689963
145.680000 2.532229
145.700000 2.213862
145.720000 1.879252
145.740000 1.475073
145.760000 1.307718
145.780000 1.015300
145.800000 0.684373
145.820000 0.613768
145.840000 0.459605
145.860000 0.233716
145.880000 -0.013429
145.900000 -0.350994
145.920000 -0.745931
145.940000 -1.151665
145.960000 -1.612502
145.980000 -2.040459
146.000000 -2.399295
146.020000 -2.837040
146.040000 -3.148181
146.060000 -3.481461
146.080000 -3.967574
146.100000 -4.457692
146.120000 -4.950442
146.140000 -5.538037
146.160000 -6.185203
146.180000 -6.755686
146.200000 -7.300711
146.220000 -8.004786
146.240000 -8.748981
146.260000 -9.197705
146.280000 -9.579983
146.300000 -10.213190
146.320000 -10.911160
146.340000 -11.319690
146.360000 -11.434360
146.380000 -11.665550
146.400000 -11.793990
146.420000 -11.659440
146.440000 -11.552030
146.460000 -11.352160
146.480000 -11.048350
146.500000 -10.815470
146.520000 -11.032480
146.540000 -11.669260
146.560000 -11.773900
146.580000 -11.204120
146.600000 -11.214650
146.620000 -11.324620
146.640000 -10.856700
146.660000 -10.243350
146.680000 -9.843414
146.700000 -9.535788
146.720000 -8.992178
146.740000 -8.664331
146.760000 -8.730049
146.780000 -8.555553
146.800000 -8.206855
146.820000 -8.220270
146.840000 -8.175277
146.860000 -7.779374
146.880000 -7.469326
146.900000 -7.518575
146.920000 -7.367997
146.940000 -6.982961
146.960000 -6.937604
146.980000 -6.936077
147.000000 -6.677351
147.020000 -6.264350
147.040000 -6.173860
147.060000 -5.979353
147.080000 -5.484222
147.100000 -5.336193
147.120000 -5.338559
147.140000 -5.056854
147.160000 -4.850038
147.180000 -4.941522
147.200000 -4.752813
147.220000 -4.413819
147.240000 -4.367034
147.260000 -4.282397
147.280000 -4.021151
147.300000 -3.860336
147.320000 -3.944986
147.340000 -3.989237
147.360000 -3.786664
147.380000 -3.733816
147.400000 -3.824809
147.420000 -3.535514
147.440000 -3.268778
147.460000 -3.210062
147.480000 -2.991315
147.500000 -2.806387
147.520000 -2.642883
147.540000 -2.556034
147.560000 -2.405232
147.580000 -1.988226
147.600000 -1.814304
147.620000 -1.479960
147.640000 -0.867201
147.660000 -0.550626
147.680000 -0.285921
147.700000 0.244135
147.720000 0.644043
147.740000 0.883977
147.760000 1.296516
147.780000 1.910563
147.800000 2.433477
147.820000 2.945216
147.840000 3.594230
147.860000 4.308640
147.880000 4.903657
147.900000 5.357114
147.920000 5.973094
147.940000 6.655394
147.960000 7.129674
147.980000 7.849713
148.000000 8.658603
148.020000 9.333328
148.040000 10.173730
148.060000 10.949880
148.080000 11.717880
148.100000 12.376550
148.120000 12.958580
148.140000 13.836080
148.160000 14.486240
148.180000 14.854990
148.200000 15.468510
148.220000 16.061760
148.240000 16.330080
148.260000 16.405700
148.280000 16.501870
148.300000 16.595940
148.320000 16.604930
148.340000 16.536970
148.360000 16.653600
148.380000 16.941380
148.400000 17.177850
148.420000 17.408790
148.440000 17.685300
148.460000 17.563270
148.480000 17.090700
148.500000 16.561960
148.520000 15.878910
148.540000 15.022170
148.560000 14.334830
148.580000 13.800300
148.600000 13.393040
148.620000 12.971560
148.640000 12.540550
148.660000 12.390260
148.680000 12.136280
148.700000 11.594970
148.720000 11.097090
148.740000 10.789860
148.760000 10.471890
148.780000 10.000040
148.800000 9.743374
148.820000 9.510890
148.840000 9.380169
148.860000 9.068468
148.880000 8.702098
148.900000 8.420924
148.920000 7.988346
148.940000 7.532019
148.960000 7.263462
148.980000 6.988576
149.000000 6.676077
149.020000 6.534895
149.040000 6.411889
149.060000 6.076803
149.080000 5.709845
149.100000 5.261919
149.120000 4.983070
149.140000 4.548293
149.160000 3.987781
149.180000 3.737708
149.200000 3.636562
149.220000 3.341595
149.240000 2.976135
149.260000 2.799665
149.280000 2.597400
149.300000 2.234643
149.320000 1.799279
149.340000 1.492871
149.360000 1.346312
149.380000 1.107960
149.400000 0.860423
149.420000 0.740792
149.440000 0.584318
149.460000 0.248532
149.480000 -0.043466
149.500000 -0.363079
149.520000 -0.899940
149.540000 -1.326259
149.560000 -1.690850
149.580000 -2.020812
149.600000 -2.418157
149.620000 -2.869738
149.640000 -3.113662
149.660000 -3.418208
149.680000 -4.032353
149.700000 -4.600358
149.720000 -5.027937
149.740000 -5.613529
149.760000 -6.213560
149.780000 -6.749146
149.800000 -7.277914
149.820000 -7.919114
149.840000 -8.723215
149.860000 -9.194134
149.880000 -9.577266
149.900000 -10.322760
149.920000 -11.014880
149.940000 -11.387570
149.960000 -11.536230
149.980000 -11.713750
150.000000 -11.830650
150.020000 -11.721970
150.040000 -11.603750
150.060000 -11.605020
150.080000 -11.287370
150.100000 -11.013140
150.120000 -11.383920
150.140000 -11.967220
150.160000 -11.960120
150.180000 -11.284850
150.200000 -11.320710
150.220000 -11.431350
150.240000 -10.895050
150.260000 -10.263950
150.280000 -9.983490
150.300000 -9.693620
150.320000 -9.141678
150.340000 -8.801256
150.360000 -8.893496
150.380000 -8.681191
150.400000 -8.251680
150.420000 -8.332101
150.440000 -8.275653
150.460000 -7.860608
150.480000 -7.591057
150.500000 -7.626667
150.520000 -7.394295
150.540000 -6.915030
150.560000 -6.859017
150.580000 -6.766497
150.600000 -6.390282
150.620000 -6.003915
150.640000 -5.944205
150.660000 -5.775030
150.680000 -5.255953
150.700000 -5.151544
150.720000 -5.169385
150.740000 -4.815464
150.760000 -4.604909
150.780000 -4.696939
150.800000 -4.524880
150.820000 -4.215405
150.840000 -4.205911
150.860000 -4.137841
150.880000 -3.886550
150.900000 -3.692464
150.920000 -3.781371
150.940000 -3.744472
150.960000 -3.498993
150.980000 -3.544182
151.000000 -3.620794
151.020000 -3.351692
151.040000 -3.151696
151.060000 -3.153320
151.080000 -2.953758
151.100000 -2.665989
151.120000 -2.574183
151.140000 -2.479632
151.160000 -2.292491
151.180000 -1.966703
151.200000 -1.807050
151.220000 -1.568531
151.240000 -0.992573
151.260000 -0.681712
151.280000 -0.415200
151.300000 0.131898
151.320000 0.596081
151.340000 0.848982
151.360000 1.287021
151.380000 1.917369
151.400000 2.372506
151.420000 2.848733
151.440000 3.473871
151.460000 4.176154
151.480000 4.723503
151.500000 5.203581
151.520000 5.907866
151.540000 6.557580
151.560000 7.019803
151.580000 7.667627
151.600000 8.480313
151.620000 9.087723
151.640000 9.768888
151.660000 10.577640
151.680000 11.292710
151.700000 11.972190
151.720000 12.611640
151.740000 13.418350
151.760000 14.161160
151.780000 14.533930
151.800000 15.013360
151.820000 15.624380
151.840000 15.836780
151.860000 15.924390
151.880000 16.138100
151.900000 16.302790
151.920000 16.402250
151.940000 16.442050
151.960000 16.635590
151.980000 16.952970
152.000000 17.144700
152.020000 17.367700
152.040000 17.632460
152.060000 17.466010
152.080000 16.955080
152.100000 16.448000
152.120000 15.864020
152.140000 15.046350
152.160000 14.349730
152.180000 13.815570
152.200000 13.472570
152.220000 12.988090
152.240000 12.497670
152.260000 12.351800
152.280000 12.141620
152.300000 11.614030
152.320000 11.115590
152.340000 10.880730
152.360000 10.543470
152.380000 10.017170
152.400000 9.754983
152.420000 9.559230
152.440000 9.335092
152.460000 8.989391
152.480000 8.670534
152.500000 8.408251
152.520000 8.053588
152.540000 7.563890
152.560000 7.291469
152.580000 7.149083
152.600000 6.693007
152.620000 6.482368
152.640000 6.391458
152.660000 6.126039
152.680000 5.774372
152.700000 5.331684
152.720000 5.116620
152.740000 4.770429
152.760000 4.244700
152.780000 3.935464
152.800000 3.825482
152.820000 3.564963
152.840000 3.150281
152.860000 2.947751
152.880000 2.800421
152.900000 2.469452
152.920000 2.004694
152.940000 1.675475
152.960000 1.546168
152.980000 1.230784
153.000000 0.894633
153.020000 0.727167
153.040000 0.632770
153.060000 0.327413
153.080000 -0.034028
153.100000 -0.266260
153.120000 -0.691584
153.140000 -1.162643
153.160000 -1.577605
153.180000 -1.973648
153.200000 -2.343505
153.220000 -2.786012
153.240000 -3.219346
153.260000 -3.540499
153.280000 -4.043794
153.300000 -4.691310
153.320000 -5.169035
153.340000 -5.722504
153.360000 -6.337882
153.380000 -6.927661
153.400000 -7.504194
153.420000 -8.095038
153.440000 -8.897151
153.460000 -9.448827
153.480000 -9.800452
153.500000 -10.428880
153.520000 -11.097390
153.540000 -11.536740
153.560000 -11.617140
153.580000 -11.779550
153.600000 -11.964170
153.620000 -11.957470
153.640000 -11.788960
153.660000 -11.724840
153.680000 -11.574570
153.700000 -11.258830
153.720000 -11.405910
153.740000 -11.891270
153.760000 -12.054290
153.780000 -11.437140
153.800000 -11.246820
153.820000 -11.399620
153.840000 -10.958560
153.860000 -10.318060
153.880000 -9.848441
153.900000 -9.596115
153.920000 -9.037268
153.940000 -8.552626
153.960000 -8.626858
153.980000 -8.434900
154.000000 -8.018734
154.020000 -8.019924
154.040000 -8.011494
154.060000 -7.634747
154.080000 -7.305920
154.100000 -7.273404
154.120000 -7.150483
154.140000 -6.697852
154.160000 -6.486275
154.180000 -6.589004
154.200000 -6.264840
154.220000 -5.873334
154.240000 -5.839474
154.260000 -5.717728
154.280000 -5.295247
154.300000 -5.036703
154.320000 -5.123342
154.340000 -4.817844
154.360000 -4.518732
154.380000 -4.602724
154.400000 -4.454695
154.420000 -4.159406
154.440000 -4.077346
154.460000 -4.081757
154.480000 -3.847523
154.500000 -3.620206
154.520000 -3.680001
154.540000 -3.687562
154.560000 -3.450766
154.580000 -3.402132
154.600000 -3.548327
154.620000 -3.401012
154.640000 -3.168430
154.660000 -3.144820
154.680000 -3.071764
154.700000 -2.824689
154.720000 -2.617243
154.740000 -2.596812
154.760000 -2.408691
154.780000 -2.075705
154.800000 -1.931694
154.820000 -1.703552
154.840000 -1.231190
154.860000 -0.842793
154.880000 -0.618319
154.900000 -0.097940
154.920000 0.447520
154.940000 0.685927
154.960000 1.086843
154.980000 1.697068
155.000000 2.214534
155.020000 2.645390
155.040000 3.223253
155.060000 3.985302
155.080000 4.569004
155.100000 5.053689
155.120000 5.743005
155.140000 6.471516
155.160000 6.977065
155.180000 7.633417
155.200000 8.430531
155.220000 9.139829
155.240000 9.862725
155.260000 10.614710
155.280000 11.451200
155.300000 12.150870
155.320000 12.760810
155.340000 13.628760
155.360000 14.281330
155.380000 14.616550
155.400000 15.076120
155.420000 15.633220
155.440000 15.873570
155.460000 15.889720
155.480000 16.024360
155.500000 16.309500
155.520000 16.443910
155.540000 16.407880
155.560000 16.615900
155.580000 16.982120
155.600000 17.243120
155.620000 17.406180
155.640000 17.419780
155.660000 17.264670
155.680000 16.700880
155.700000 16.096480
155.720000 15.463880
155.740000 14.721090
155.760000 14.093860
155.780000 13.552020
155.800000 13.188230
155.820000 12.755500
155.840000 12.419360
155.860000 12.288160
155.880000 12.029660
155.900000 11.560270
155.920000 11.200030
155.940000 10.999910
155.960000 10.621400
155.980000 10.205720
156.000000 9.903461
156.020000 9.746693
156.040000 9.540185
156.060000 9.078886
156.080000 8.833954
156.100000 8.567932
156.120000 8.212120
156.140000 7.812114
156.160000 7.486886
156.180000 7.323985
156.200000 7.033835
156.220000 6.739218
156.240000 6.547092
156.260000 6.251705
156.280000 5.871864
156.300000 5.506152
156.320000 5.124826
156.340000 4.727144
156.360000 4.297101
156.380000 4.000104
156.400000 3.784732
156.420000 3.402734
156.440000 3.101816
156.460000 2.873575
156.480000 2.559955
156.500000 2.231913
156.520000 1.829288
156.540000 1.562202
156.560000 1.352277
156.580000 0.919671
156.600000 0.674374
156.620000 0.549534
156.640000 0.298580
156.660000 -0.018484
156.680000 -0.394209
156.700000 -0.661477
156.720000 -0.997474
156.740000 -1.486765
156.760000 -1.907735
156.780000 -2.255270
156.800000 -2.648849
156.820000 -3.096886
156.840000 -3.544504
156.860000 -3.962869
156.880000 -4.427752
156.900000 -4.953033
156.920000 -5.517270
156.940000 -6.048866
156.960000 -6.566865
156.980000 -7.140569
157.000000 -7.622536
157.020000 -8.259956
157.040000 -9.022691
157.060000 -9.627538
157.080000 -10.019160
157.100000 -10.511640
157.120000 -11.172450
157.140000 -11.591470
157.160000 -11.695770
157.180000 -11.802720
157.200000 -11.891900
157.220000 -11.884740
157.240000 -11.685770
157.260000 -11.601620
157.280000 -11.529970
157.300000 -11.118010
157.320000 -10.919970
157.340000 -11.193770
157.360000 -11.589730
157.380000 -11.425530
157.400000 -10.827180
157.420000 -10.900880
157.440000 -10.880570
157.460000 -10.391970
157.480000 -9.855709
157.500000 -9.525286
157.520000 -9.185606
157.540000 -8.745242
157.560000 -8.499483
157.580000 -8.509482
157.600000 -8.245266
157.620000 -8.036084
157.640000 -8.090473
157.660000 -7.943956
157.680000 -7.563134
157.700000 -7.316619
157.720000 -7.264876
157.740000 -6.944885
157.760000 -6.461517
157.780000 -6.464192
157.800000 -6.361617
157.820000 -5.984899
157.840000 -5.740204
157.860000 -5.641144
157.880000 -5.448598
157.900000 -4.976026
157.920000 -4.882288
157.940000 -4.797259
157.960000 -4.465505
157.980000 -4.371179
158.000000 -4.397869
158.020000 -4.219536
158.040000 -4.034650
158.060000 -4.034132
158.080000 -3.887517
158.100000 -3.648535
158.120000 -3.566321
158.140000 -3.628076
158.160000 -3.538959
158.180000 -3.392750
158.200000 -3.499791
158.220000 -3.531243
158.240000 -3.353624
158.260000 -3.191717
158.280000 -3.173065
158.300000 -3.016773
158.320000 -2.707075
158.340000 -2.621094
158.360000 -2.514458
158.380000 -2.259891
158.400000 -2.011990
158.420000 -1.807807
158.440000 -1.445343
158.460000 -0.948014
158.480000 -0.632392
158.500000 -0.219041
158.520000 0.359928
158.540000 0.830021
158.560000 1.119065
158.580000 1.686986
158.600000 2.306564
158.620000 2.735670
158.640000 3.252548
158.660000 3.930885
158.680000 4.637677
158.700000 5.222163
158.720000 5.760033
158.740000 6.501301
158.760000 7.177355
158.780000 7.745220
158.800000 8.418530
158.820000 9.169194
158.840000 9.871421
158.860000 10.614230
158.880000 11.422710
158.900000 12.189430
158.920000 12.901470
158.940000 13.687880
158.960000 14.401160
158.980000 14.819100
159.000000 15.166040
159.020000 15.621460
159.040000 15.989110
159.060000 16.034950
159.080000 16.101500
159.100000 16.420670
159.120000 16.685510
159.140000 16.712740
159.160000 16.850840
159.180000 17.142260
159.200000 17.466270
159.220000 17.613840
159.240000 17.472550
159.260000 17.268280
159.280000 16.835970
159.300000 16.178650
159.320000 15.486870
159.340000 14.792190
159.360000 14.163310
159.380000 13.639190
159.400000 13.206670
159.420000 12.745680
159.440000 12.440870
159.460000 12.279920
159.480000 12.076480
159.500000 11.711270
159.520000 11.336370
159.540000 11.159480
159.560000 10.825270
159.580000 10.375490
159.600000 10.112030
159.620000 9.849422
159.640000 9.629261
159.660000 9.262275
159.680000 8.931025
159.700000 8.659500
159.720000 8.364365
159.740000 7.980574
159.760000 7.581030
159.780000 7.307685
159.800000 6.992959
159.820000 6.654358
159.840000 6.426719
159.860000 6.118603
159.880000 5.802911
159.900000 5.514036
159.920000 5.226098
159.940000 4.792218
159.960000 4.376500
159.980000 4.073593
160.000000 3.763041
160.020000 3.398253
160.040000 3.046208
160.060000 2.829940
160.080000 2.589404
160.100000 2.185715
160.120000 1.763766
160.140000 1.454236
160.160000 1.179350
160.180000 0.785043
160.200000 0.403689
160.220000 0.214056
160.240000 0.019857
160.260000 -0.381746
160.280000 -0.680115
160.300000 -0.941936
160.320000 -1.367191
160.340000 -1.738658
160.360000 -2.181262
160.380000 -2.572544
160.400000 -2.947723
160.420000 -3.408699
160.440000 -3.763377
160.460000 -4.146901
160.480000 -4.625900
160.500000 -5.084902
160.520000 -5.486673
160.540000 -5.978723
160.560000 -6.530386
160.580000 -7.010225
160.600000 -7.400933
160.620000 -7.903066
160.640000 -8.641939
160.660000 -9.325486
160.680000 -9.611154
160.700000 -9.965804
160.720000 -10.614450
160.740000 -11.170320
160.760000 -11.408770
160.780000 -11.437010
160.800000 -11.626530
160.820000 -11.805850
160.840000 -11.565930
160.860000 -11.453230
160.880000 -11.421500
160.900000 -10.970870
160.920000 -10.697380
160.940000 -10.989200
160.960000 -11.540010
160.980000 -11.376980
161.000000 -10.781210
161.020000 -10.936100
161.040000 -10.968090
161.060000 -10.469690
161.080000 -9.893238
161.100000 -9.571763
161.120000 -9.268730
161.140000 -8.647485
161.160000 -8.449071
161.180000 -8.558143
161.200000 -8.230380
161.220000 -8.019560
161.240000 -8.122709
161.260000 -8.018986
161.280000 -7.581044
161.300000 -7.337792
161.320000 -7.328718
161.340000 -6.993463
161.360000 -6.520191
161.380000 -6.527277
161.400000 -6.433048
161.420000 -6.007542
161.440000 -5.750720
161.460000 -5.685829
161.480000 -5.379155
161.500000 -4.893882
161.520000 -4.828193
161.540000 -4.666874
161.560000 -4.300630
161.580000 -4.288937
161.600000 -4.289091
161.620000 -4.163887
161.640000 -3.961440
161.660000 -3.974211
161.680000 -3.963653
161.700000 -3.633748
161.720000 -3.541269
161.740000 -3.685644
161.760000 -3.577804
161.780000 -3.423235
161.800000 -3.568058
161.820000 -3.577594
161.840000 -3.399793
161.860000 -3.237382
161.880000 -3.218786
161.900000 -3.017613
161.920000 -2.676155
161.940000 -2.640013
161.960000 -2.495582
161.980000 -2.206861
162.000000 -1.982961
162.020000 -1.806056
162.040000 -1.439616
162.060000 -0.915624
162.080000 -0.646101
162.100000 -0.306310
162.120000 0.260659
162.140000 0.687117
162.160000 0.935551
162.180000 1.408445
162.200000 2.028976
162.220000 2.501645
162.240000 2.988416
162.260000 3.659738
162.280000 4.423971
162.300000 4.933372
162.320000 5.532618
162.340000 6.278339
162.360000 6.877123
162.380000 7.490415
162.400000 8.194224
162.420000 9.013981
162.440000 9.714919
162.460000 10.450810
162.480000 11.345300
162.500000 12.101270
162.520000 12.808230
162.540000 13.560100
162.560000 14.303360
162.580000 14.764160
162.600000 15.111240
162.620000 15.655900
162.640000 16.018760
162.660000 16.125590
162.680000 16.215100
162.700000 16.494620
162.720000 16.724160
162.740000 16.734670
162.760000 16.865040
162.780000 17.192370
162.800000 17.450700
162.820000 17.578760
162.840000 17.576090
162.860000 17.358500
162.880000 16.952640
162.900000 16.359320
162.920000 15.663760
162.940000 14.998150
162.960000 14.331660
162.980000 13.804110
163.000000 13.401640
163.020000 12.974190
163.040000 12.645840
163.060000 12.474770
163.080000 12.286880
163.100000 11.904070
163.120000 11.496020
163.140000 11.299410
163.160000 10.984410
163.180000 10.493550
163.200000 10.179020
163.220000 9.963787
163.240000 9.790664
163.260000 9.399031
163.280000 8.992892
163.300000 8.701286
163.320000 8.358385
163.340000 7.908625
163.360000 7.447172
163.380000 7.185967
163.400000 6.935041
163.420000 6.646502
163.440000 6.390016
163.460000 6.084785
163.480000 5.790378
163.500000 5.446287
163.520000 5.087507
163.540000 4.635688
163.560000 4.165301
163.580000 3.856611
163.600000 3.633173
163.620000 3.271340
163.640000 2.905362
163.660000 2.706949
163.680000 2.506322
163.700000 2.140905
163.720000 1.622766
163.740000 1.288254
163.760000 1.138334
163.780000 0.718569
163.800000 0.314123
163.820000 0.122165
163.840000 0.021145
163.860000 -0.248168
163.880000 -0.646003
163.900000 -0.889452
163.920000 -1.191420
163.940000 -1.542345
163.960000 -1.999261
163.980000 -2.373725
164.000000 -2.689445
164.020000 -3.119110
164.040000 -3.480705
164.060000 -3.864635
164.080000 -4.274444
164.100000 -4.776562
164.120000 -5.266610
164.140000 -5.707646
164.160000 -6.347040
164.180000 -6.877641
164.200000 -7.245468
164.220000 -7.739016
164.240000 -8.465889
164.260000 -9.235514
164.280000 -9.525286
164.300000 -9.847559
164.320000 -10.571060
164.340000 -11.135290
164.360000 -11.379990
164.380000 -11.463180
164.400000 -11.582970
164.420000 -11.714500
164.440000 -11.483920
164.460000 -11.319160
164.480000 -11.312900
164.500000 -10.866790
164.520000 -10.651760
164.540000 -10.980960
164.560000 -11.590140
164.580000 -11.540930
164.600000 -10.810330
164.620000 -11.013050
164.640000 -11.013280
164.660000 -10.459860
164.680000 -9.919425
164.700000 -9.533702
164.720000 -9.181475
164.740000 -8.614801
164.760000 -8.310130
164.780000 -8.422003
164.800000 -8.121434
164.820000 -7.790507
164.840000 -7.986904
164.860000 -7.865971
164.880000 -7.395374
164.900000 -7.202379
164.920000 -7.230834
164.940000 -6.970428
164.960000 -6.488348
164.980000 -6.560633
165.000000 -6.547848
165.020000 -6.117287
165.040000 -5.905514
165.060000 -5.823062
165.080000 -5.582120
165.100000 -5.031227
165.120000 -4.923275
165.140000 -4.868970
165.160000 -4.431589
165.180000 -4.364485
165.200000 -4.465323
165.220000 -4.244714
165.240000 -4.040993
165.260000 -4.097805
165.280000 -4.024259
165.300000 -3.755745
165.320000 -3.678404
165.340000 -3.807557
165.360000 -3.798301
165.380000 -3.634644
165.400000 -3.799365
165.420000 -3.942704
165.440000 -3.707951
165.460000 -3.549307
165.480000 -3.569430
165.500000 -3.360640
165.520000 -3.027584
165.540000 -2.962944
165.560000 -2.844798
165.580000 -2.500441
165.600000 -2.258715
165.620000 -2.060007
165.640000 -1.645494
165.660000 -1.092599
165.680000 -0.750286
165.700000 -0.379337
165.720000 0.269313
165.740000 0.814604
165.760000 1.041864
165.780000 1.561697
165.800000 2.255158
165.820000 2.710548
165.840000 3.190275
165.860000 3.910888
165.880000 4.681745
165.900000 5.217318
165.920000 5.788011
165.940000 6.518679
165.960000 7.178672
165.980000 7.706122
166.000000 8.376352
166.020000 9.218934
166.040000 9.868662
166.060000 10.600530
166.080000 11.541620
166.100000 12.272490
166.120000 12.972560
166.140000 13.751840
166.160000 14.520240
166.180000 15.047160
166.200000 15.353210
166.220000 15.845360
166.240000 16.365620
166.260000 16.456950
166.280000 16.439840
166.300000 16.669750
166.320000 16.919890
166.340000 16.906210
166.360000 16.860950
166.380000 17.142490
166.400000 17.409970
166.420000 17.556690
166.440000 17.621230
166.460000 17.422900
166.480000 17.150290
166.500000 16.584930
166.520000 15.821470
166.540000 15.191510
166.560000 14.461750
166.580000 13.883790
166.600000 13.480940
166.620000 12.988950
166.640000 12.638960
166.660000 12.449780
166.680000 12.271230
166.700000 11.923800
166.720000 11.476350
166.740000 11.179420
166.760000 10.960030
166.780000 10.454090
166.800000 9.991528
166.820000 9.741862
166.840000 9.565545
166.860000 9.193854
166.880000 8.723173
166.900000 8.446172
166.920000 8.135802
166.940000 7.680594
166.960000 7.229154
166.980000 6.861019
167.000000 6.688736
167.020000 6.307704
167.040000 6.006982
167.060000 5.838171
167.080000 5.509863
167.100000 5.209350
167.120000 4.790566
167.140000 4.430049
167.160000 3.999880
167.180000 3.589889
167.200000 3.375077
167.220000 3.084788
167.240000 2.763942
167.260000 2.526809
167.280000 2.388890
167.300000 2.164332
167.320000 1.741893
167.340000 1.358509
167.360000 1.202973
167.380000 0.983092
167.400000 0.563285
167.420000 0.338475
167.440000 0.204379
167.460000 0.005125
167.480000 -0.351134
167.500000 -0.765928
167.520000 -1.033757
167.540000 -1.416230
167.560000 -1.860053
167.580000 -2.277213
167.600000 -2.654450
167.620000 -2.989677
167.640000 -3.378046
167.660000 -3.784592
167.680000 -4.191362
167.700000 -4.697121
167.720000 -5.185250
167.740000 -5.623626
167.760000 -6.228935
167.780000 -6.786984
167.800000 -7.182173
167.820000 -7.651019
167.840000 -8.459462
167.860000 -9.262793
167.880000 -9.494814
167.900000 -9.836553
167.920000 -10.599880
167.940000 -11.257750
167.960000 -11.387500
167.980000 -11.352300
168.000000 -11.621180
168.020000 -11.683750
168.040000 -11.446930
168.060000 -11.295030
168.080000 -11.204810
168.100000 -10.799660
168.120000 -10.532530
168.140000 -10.882370
168.160000 -11.561240
168.180000 -11.401760
168.200000 -10.774500
168.220000 -11.020590
168.240000 -11.044310
168.260000 -10.546570
168.280000 -10.016890
168.300000 -9.701126
168.320000 -9.290477
168.340000 -8.688669
168.360000 -8.477820
168.380000 -8.474669
168.400000 -8.168878
168.420000 -7.903234
168.440000 -7.995754
168.460000 -7.910250
168.480000 -7.407515
168.500000 -7.239726
168.520000 -7.277633
168.540000 -6.986475
168.560000 -6.533299
168.580000 -6.613734
168.600000 -6.551013
168.620000 -6.129609
168.640000 -5.918915
168.660000 -5.814688
168.680000 -5.600324
168.700000 -5.143646
168.720000 -5.051784
168.740000 -4.993446
168.760000 -4.612121
168.780000 -4.540255
168.800000 -4.648768
168.820000 -4.380085
168.840000 -4.211036
168.860000 -4.310852
168.880000 -4.194834
168.900000 -3.940771
168.920000 -3.884296
168.940000 -4.000776
168.960000 -3.934778
168.980000 -3.696903
169.000000 -3.816800
169.020000 -3.851430
169.040000 -3.600321
169.060000 -3.399359
169.080000 -3.344998
169.100000 -3.212568
169.120000 -2.827672
169.140000 -2.743610
169.160000 -2.618714
169.180000 -2.255900
169.200000 -2.018053
169.220000 -1.778862
169.240000 -1.384947
169.260000 -0.845257
169.280000 -0.502119
169.300000 -0.173796
169.320000 0.468160
169.340000 0.919559
169.360000 1.156734
169.380000 1.682350
169.400000 2.307279
169.420000 2.753090
169.440000 3.223029
169.460000 3.904265
169.480000 4.638937
169.500000 5.157188
169.520000 5.678701
169.540000 6.413850
169.560000 7.008405
169.580000 7.559619
169.600000 8.204950
169.620000 8.984672
169.640000 9.711503
169.660000 10.378920
169.680000 11.264140
169.700000 12.064980
169.720000 12.699690
169.740000 13.532240
169.760000 14.353130
169.780000 14.882470
169.800000 15.313470
169.820000 15.836360
169.840000 16.344140
169.860000 16.532420
169.880000 16.514530
169.900000 16.747650
169.920000 16.963850
169.940000 16.946310
169.960000 16.947240
169.980000 17.181360
170.000000 17.428550
170.020000 17.576090
170.040000 17.682430
170.060000 17.575680
170.080000 17.289260
170.100000 16.694580
170.120000 16.025940
170.140000 15.384770
170.160000 14.593610
170.180000 13.968970
170.200000 13.576520
170.220000 13.156060
170.240000 12.702410
170.260000 12.442280
170.280000 12.287270
170.300000 11.943490
170.320000 11.413440
170.340000 11.045510
170.360000 10.828260
170.380000 10.402960
170.400000 9.968128
170.420000 9.660740
170.440000 9.551766
170.460000 9.231705
170.480000 8.692702
170.500000 8.376716
170.520000 8.057229
170.540000 7.638612
170.560000 7.148452
170.580000 6.736935
170.600000 6.507630
170.620000 6.239396
170.640000 5.903931
170.660000 5.639702
170.680000 5.358584
170.700000 5.066950
170.720000 4.755123
170.740000 4.358044
170.760000 3.938461
170.780000 3.620374
170.800000 3.394766
170.820000 3.112836
170.840000 2.756955
170.860000 2.493551
170.880000 2.316171
170.900000 2.103992
170.920000 1.731558
170.940000 1.347600
170.960000 1.183523
170.980000 0.939206
171.000000 0.579179
171.020000 0.309082
171.040000 0.105655
171.060000 -0.076977
171.080000 -0.384798
171.100000 -0.742837
171.120000 -1.035269
171.140000 -1.298742
171.160000 -1.718885
171.180000 -2.164304
171.200000 -2.501113
171.220000 -2.864165
171.240000 -3.263863
171.260000 -3.635596
171.280000 -4.073327
171.300000 -4.509462
171.320000 -4.897719
171.340000 -5.467838
171.360000 -5.977603
171.380000 -6.476235
171.400000 -7.007677
171.420000 -7.590903
171.440000 -8.468144
171.460000 -9.062601
171.480000 -9.305979
171.500000 -9.903475
171.520000 -10.547830
171.540000 -11.103490
171.560000 -11.223850
171.580000 -11.251970
171.600000 -11.516470
171.620000 -11.523720
171.640000 -11.358470
171.660000 -11.253220
171.680000 -10.993660
171.700000 -10.613210
171.720000 -10.701890
171.740000 -11.370760
171.760000 -11.909860
171.780000 -11.183050
171.800000 -11.038760
171.820000 -11.457400
171.840000 -11.204470
171.860000 -10.540080
171.880000 -10.016300
171.900000 -9.859140
171.920000 -9.251016
171.940000 -8.595210
171.960000 -8.661824
171.980000 -8.602576
172.000000 -8.138616
172.020000 -8.040789
172.040000 -8.192851
172.060000 -7.832825
172.080000 -7.321254
172.100000 -7.335719
172.120000 -7.294816
172.140000 -6.751345
172.160000 -6.547246
172.180000 -6.732706
172.200000 -6.489566
172.220000 -6.054902
172.240000 -5.957984
172.260000 -5.969425
172.280000 -5.430785
172.300000 -5.092058
172.320000 -5.210092
172.340000 -4.919243
172.360000 -4.589883
172.380000 -4.685456
172.400000 -4.712833
172.420000 -4.366586
172.440000 -4.264991
172.460000 -4.368168
172.480000 -4.129789
172.500000 -3.878778
172.520000 -3.945700
172.540000 -4.038683
172.560000 -3.812262
172.580000 -3.692772
172.600000 -3.894490
172.620000 -3.721857
172.640000 -3.379894
172.660000 -3.338795
172.680000 -3.251162
172.700000 -2.964387
172.720000 -2.683913
172.740000 -2.662194
172.760000 -2.511938
172.780000 -2.047194
172.800000 -1.921108
172.820000 -1.699617
172.840000 -1.129624
172.860000 -0.716986
172.880000 -0.467698
172.900000 -0.017476
172.920000 0.608068
172.940000 0.914140
172.960000 1.192485
172.980000 1.862448
173.000000 2.453796
173.020000 2.857947
173.040000 3.434606
173.060000 4.190059
173.080000 4.820043
173.100000 5.269901
173.120000 5.879327
173.140000 6.632820
173.160000 7.138188
173.180000 7.685481
173.200000 8.508949
173.220000 9.229185
173.240000 9.873619
173.260000 10.624900
173.280000 11.486190
173.300000 12.172550
173.320000 12.741120
173.340000 13.614530
173.360000 14.418610
173.380000 14.840220
173.400000 15.281200
173.420000 15.918730
173.440000 16.343870
173.460000 16.399620
173.480000 16.465910
173.500000 16.700190
173.520000 16.835650
173.540000 16.745730
173.560000 16.826770
173.580000 17.176120
173.600000 17.379330
173.620000 17.488300
173.640000 17.771410
173.660000 17.751400
173.680000 17.333880
173.700000 16.743220
173.720000 16.147310
173.740000 15.440360
173.760000 14.571510
173.780000 13.856640
173.800000 13.503920
173.820000 13.026280
173.840000 12.478220
173.860000 12.233470
173.880000 12.082300
173.900000 11.728950
173.920000 11.176350
173.940000 10.837040
173.960000 10.701010
173.980000 10.231560
174.000000 9.801754
174.020000 9.558180
174.040000 9.398009
174.060000 9.073341
174.080000 8.619268
174.100000 8.371842
174.120000 7.990181
174.140000 7.466413
174.160000 7.033709
174.180000 6.782684
174.200000 6.436801
174.220000 6.115620
174.240000 5.910303
174.260000 5.743383
174.280000 5.445013
174.300000 4.978365
174.320000 4.715241
174.340000 4.479621
174.360000 3.977558
174.380000 3.544630
174.400000 3.385818
174.420000 3.259311
174.440000 2.893123
174.460000 2.613770
174.480000 2.464368
174.500000 2.291903
174.520000 1.907875
174.540000 1.445301
174.560000 1.309959
174.580000 1.047914
174.600000 0.720837
174.620000 0.555626
174.640000 0.368807
174.660000 0.226112
174.680000 -0.058660
174.700000 -0.388761
174.720000 -0.692719
174.740000 -1.147100
174.760000 -1.627793
174.780000 -1.967389
174.800000 -2.384605
174.820000 -2.867609
174.840000 -3.214641
174.860000 -3.552682
174.880000 -3.983356
174.900000 -4.579339
174.920000 -5.099746
174.940000 -5.574138
174.960000 -6.235363
174.980000 -6.829582
175.000000 -7.367605
175.020000 -7.984411
175.040000 -8.746769
175.060000 -9.335358
175.080000 -9.556107
175.100000 -10.148170
175.120000 -10.915860
175.140000 -11.319200
175.160000 -11.395530
175.180000 -11.560580
175.200000 -11.765420
175.220000 -11.713900
175.240000 -11.484540
175.260000 -11.381120
175.280000 -11.120060
175.300000 -10.739460
175.320000 -10.990150
175.340000 -11.718820
175.360000 -11.892220
175.380000 -11.266560
175.400000 -11.218350
175.420000 -11.488330
175.440000 -11.019370
175.460000 -10.294240
175.480000 -9.942824
175.500000 -9.615734
175.520000 -8.950770
175.540000 -8.523555
175.560000 -8.612854
175.580000 -8.435712
175.600000 -8.014673
175.620000 -8.074187
175.640000 -8.103608
175.660000 -7.679460
175.680000 -7.370700
175.700000 -7.428870
175.720000 -7.308959
175.740000 -6.888438
175.760000 -6.818001
175.780000 -6.934397
175.800000 -6.636013
175.820000 -6.207412
175.840000 -6.214022
175.860000 -6.024612
175.880000 -5.477403
175.900000 -5.329219
175.920000 -5.328645
175.940000 -5.000770
175.960000 -4.766774
175.980000 -4.869475
176.000000 -4.736807
176.020000 -4.405949
176.040000 -4.393220
176.060000 -4.370633
176.080000 -4.103140
176.100000 -3.923603
176.120000 -4.005523
176.140000 -4.053148
176.160000 -3.819082
176.180000 -3.779915
176.200000 -3.938279
176.220000 -3.691805
176.240000 -3.399513
176.260000 -3.403420
176.280000 -3.220284
176.300000 -2.901455
176.320000 -2.742307
176.340000 -2.650865
176.360000 -2.453908
176.380000 -2.088504
176.400000 -1.885189
176.420000 -1.624741
176.440000 -1.006366
176.460000 -0.649574
176.480000 -0.436135
176.500000 0.132612
176.520000 0.575524
176.540000 0.827543
176.560000 1.191014
176.580000 1.862812
176.600000 2.393721
176.620000 2.795520
176.640000 3.481769
176.660000 4.216666
176.680000 4.801894
176.700000 5.272393
176.720000 5.914602
176.740000 6.633549
176.760000 7.121132
176.780000 7.741131
176.800000 8.555973
176.820000 9.243580
176.840000 9.912521
176.860000 10.719210
176.880000 11.463100
176.900000 12.090840
176.920000 12.751270
176.940000 13.558900
176.960000 14.309480
176.980000 14.721390
177.000000 15.304220
177.020000 15.941980
177.040000 16.246200
177.060000 16.407880
177.080000 16.489470
177.100000 16.710750
177.120000 16.764540
177.140000 16.666220
177.160000 16.880110
177.180000 17.167130
177.200000 17.306720
177.220000 17.566270
177.240000 17.836790
177.260000 17.707660
177.280000 17.259550
177.300000 16.648340
177.320000 16.005080
177.340000 15.228940
177.360000 14.346920
177.380000 13.783150
177.400000 13.401740
177.420000 12.914390
177.440000 12.440040
177.460000 12.220330
177.480000 12.034510
177.500000 11.544890
177.520000 11.043920
177.540000 10.703490
177.560000 10.467520
177.580000 10.030920
177.600000 9.678245
177.620000 9.564705
177.640000 9.399802
177.660000 9.036036
177.680000 8.664331
177.700000 8.399877
177.720000 8.016745
177.740000 7.527341
177.760000 7.147668
177.780000 6.929594
177.800000 6.659749
177.820000 6.354742
177.840000 6.183634
177.860000 6.002809
177.880000 5.654433
177.900000 5.250044
177.920000 4.942712
177.940000 4.577574
177.960000 4.099359
177.980000 3.805835
178.000000 3.639461
178.020000 3.446859
178.040000 3.170768
178.060000 2.940133
178.080000 2.766939
178.100000 2.456933
178.120000 2.008965
178.140000 1.617361
178.160000 1.364796
178.180000 1.017513
178.200000 0.769121
178.220000 0.647936
178.240000 0.520939
178.260000 0.244835
178.280000 -0.076542
178.300000 -0.355475
178.320000 -0.791960
178.340000 -1.269713
178.360000 -1.797836
178.380000 -2.181710
178.400000 -2.544468
178.420000 -3.049079
178.440000 -3.348751
178.460000 -3.702056
178.480000 -4.186838
178.500000 -4.731821
178.520000 -5.282056
178.540000 -5.849220
178.560000 -6.456854
178.580000 -7.016555
178.600000 -7.550573
178.620000 -8.117961
178.640000 -8.883610
178.660000 -9.311090
178.680000 -9.582910
178.700000 -10.284090
178.720000 -10.935620
178.740000 -11.369910
178.760000 -11.432980
178.780000 -11.600680
178.800000 -11.792440
178.820000 -11.646850
178.840000 -11.448120
178.860000 -11.356550
178.880000 -11.097360
178.900000 -10.823060
178.920000 -11.141900
178.940000 -11.791720
178.960000 -11.973380
178.980000 -11.327340
179.000000 -11.282880
179.020000 -11.502970
179.040000 -10.962790
179.060000 -10.313030
179.080000 -9.927700
179.100000 -9.637061
179.120000 -9.130461
179.140000 -8.755325
179.160000 -8.902668
179.180000 -8.726268
179.200000 -8.308673
179.220000 -8.371969
179.240000 -8.302652
179.260000 -7.861154
179.280000 -7.526137
179.300000 -7.577978
179.320000 -7.423016
179.340000 -6.933837
179.360000 -6.904654
179.380000 -6.937632
179.400000 -6.582212
179.420000 -6.188956
179.440000 -6.089336
179.460000 -5.908972
179.480000 -5.354243
179.500000 -5.146055
179.520000 -5.218550
179.540000 -4.849520
179.560000 -4.610916
179.580000 -4.721739
179.600000 -4.490039
179.620000 -4.154071
179.640000 -4.067768
179.660000 -4.012469
179.680000 -3.720372
179.700000 -3.478016
179.720000 -3.662440
179.740000 -3.600279
179.760000 -3.395130
179.780000 -3.438289
179.800000 -3.502802
179.820000 -3.330729
179.840000 -3.036266
179.860000 -3.056123
179.880000 -2.952288
179.900000 -2.652980
179.920000 -2.558205
179.940000 -2.547534
179.960000 -2.341083
179.980000 -2.064404